Time (ms),Voltage (V)
0.01,46.54
13.34,222.54
26.67,432.41
40.0,444.57
53.34,293.92
66.67,207.34
80.0,205.99
93.33,181.05
106.67,132.37
120.0,111.77
133.33,105.44
146.67,69.75
160.0,10.53
173.34,-28.19
186.67,-32.33
200.0,-32.95
213.33,-52.26
226.66,-73.08
240.0,-86.13
253.33,-113.99
266.66,-151.64
280.0,-165.86
293.33,-162.69
306.66,-167.59
320.0,-179.5
333.33,-187.22
346.66,-180.13
359.99,-156.14
373.33,-131.85
386.66,-119.04
400.0,-111.69
413.32,-103.04
426.66,-87.54
439.99,-68.0
453.33,-65.64
466.66,-86.59
479.99,-106.24
493.32,-112.95
506.66,-121.26
519.99,-132.84
533.32,-128.53
546.66,-101.73
559.99,-64.75
573.32,-27.54
586.66,12.92
599.99,62.88
613.32,104.99
626.65,103.8
639.99,56.7
653.32,2.14
666.66,-30.89
679.99,-51.63
693.32,-71.02
706.65,-66.49
719.99,-36.57
733.32,-23.11
746.66,-24.69
759.99,-10.14
773.32,-9.43
786.65,-52.39
799.99,-86.38
813.32,-67.43
826.65,-34.86
839.98,-32.67
853.32,-54.59
866.65,-78.54
879.98,-90.41
893.31,-94.49
906.65,-109.71
919.98,-128.19
933.32,-122.86
946.64,-104.34
959.98,-103.16
973.32,-115.25
986.65,-122.1
999.98,-129.38
1013.31,-141.56
1026.64,-140.47
1039.98,-117.84
1053.31,-93.34
1066.65,-86.36
1079.98,-85.95
1093.31,-73.86
1106.64,-62.34
1119.98,-58.6
1133.31,-43.56
1146.64,-16.87
1159.98,8.89
1173.31,39.63
1186.64,72.66
1199.97,90.04
1213.3,97.7
1226.64,112.83
1239.98,127.73
1253.3,131.32
1266.64,136.76
1279.97,156.0
1293.31,179.38
1306.64,200.26
1319.97,218.73
1333.31,224.04
1346.64,215.36
1359.97,203.81
1373.3,187.02
1386.64,166.39
1399.97,149.32
1413.3,137.85
1426.64,142.11
1439.97,163.48
1453.3,179.79
1466.64,170.91
1479.96,150.02
1493.3,153.8
1506.64,170.01
1519.96,149.2
1533.3,102.63
1546.64,78.72
1559.96,79.22
1573.3,80.72
1586.63,79.61
1599.96,81.25
1613.3,88.39
1626.63,95.39
1639.96,87.17
1653.3,67.57
1666.63,54.62
1679.96,46.76
1693.3,34.65
1706.63,27.07
1719.96,37.31
1733.29,57.97
1746.63,68.98
1759.96,60.93
1773.3,34.8
1786.62,-0.25
1799.96,-22.4
1813.29,-23.04
1826.63,-22.58
1839.96,-34.48
1853.29,-53.85
1866.62,-68.6
1879.96,-57.81
1893.29,-41.1
1906.62,-72.29
1919.96,-114.95
1933.29,-99.47
1946.62,-108.02
1959.96,-206.3
1973.29,-237.15
1986.62,-101.5
1999.95,39.18
2013.28,45.92
2026.62,-8.81
2039.95,-21.09
2053.28,1.02
2066.62,19.78
2079.96,36.81
2093.28,49.9
2106.62,46.45
2119.95,40.19
2133.29,34.37
2146.62,6.38
2159.95,-21.75
2173.28,-19.39
2186.62,-18.98
2199.95,-36.86
2213.28,-33.35
2226.62,1.38
2239.95,19.97
2253.28,-11.71
2266.61,-60.92
2279.94,-80.34
2293.28,-80.61
2306.61,-94.31
2319.94,-105.43
2333.28,-77.93
2346.62,-30.81
2359.94,-12.86
2373.28,-28.14
2386.61,-50.17
2399.94,-66.67
2413.28,-79.3
2426.61,-88.18
2439.94,-89.98
2453.28,-83.27
2466.61,-71.89
2479.94,-71.04
2493.28,-83.09
2506.61,-85.41
2519.94,-73.98
2533.28,-66.76
2546.6,-63.37
2559.94,-57.2
2573.27,-53.88
2586.6,-46.35
2599.94,-22.38
2613.27,5.58
2626.6,20.87
2639.94,20.63
2653.27,6.43
2666.6,-1.05
2679.94,20.88
2693.27,43.61
2706.6,30.81
2719.94,8.2
2733.27,7.17
2746.6,12.9
2759.93,12.97
2773.27,17.07
2786.6,29.45
2799.93,41.91
2813.27,52.25
2826.6,63.55
2839.93,62.58
2853.26,39.61
2866.6,13.14
2879.94,5.13
2893.26,16.88
2906.6,23.43
2919.93,7.04
2933.26,-1.78
2946.6,14.65
2959.93,20.12
2973.26,3.11
2986.6,-7.89
2999.93,-7.32
3013.26,-4.24
3026.59,3.32
3039.93,14.46
3053.26,27.32
3066.59,41.87
3079.92,53.81
3093.26,57.66
3106.59,47.65
3119.92,21.94
3133.26,-7.03
3146.59,-18.98
3159.92,-11.96
3173.26,-6.01
3186.59,-12.65
3199.92,-15.18
3213.26,0.37
3226.59,16.68
3239.92,16.76
3253.26,6.62
3266.59,-1.97
3279.92,0.41
3293.25,8.75
3306.59,9.59
3319.92,4.47
3333.26,2.2
3346.59,28.87
3359.92,122.32
3373.26,228.61
3386.58,220.78
3399.92,84.73
3413.25,-66.63
3426.58,-142.6
3439.92,-142.76
3453.25,-121.65
3466.58,-111.1
3479.92,-103.51
3493.25,-96.84
3506.58,-92.46
3519.92,-82.4
3533.25,-65.17
3546.58,-44.14
3559.92,-28.29
3573.25,-27.06
3586.58,-28.13
3599.92,-23.07
3613.25,-29.18
3626.58,-42.33
3639.91,-35.11
3653.25,-17.33
3666.58,-15.68
3679.91,-19.24
3693.25,-11.84
3706.58,-5.96
3719.91,-10.13
3733.24,-16.4
3746.58,-14.85
3759.91,3.48
3773.24,26.84
3786.58,29.94
3799.91,16.58
3813.24,13.04
3826.57,28.7
3839.91,36.59
3853.24,12.08
3866.57,-8.05
3879.9,14.08
3893.24,43.54
3906.58,45.3
3919.9,31.74
3933.24,17.69
3946.58,11.86
3959.9,19.56
3973.24,25.27
3986.57,18.45
3999.91,19.34
4013.24,34.89
4026.57,44.09
4039.9,41.92
4053.24,38.5
4066.57,38.09
4079.9,40.56
4093.23,41.38
4106.57,41.55
4119.9,44.64
4133.24,41.74
4146.57,26.04
4159.9,5.75
4173.23,-12.09
4186.56,-26.04
4199.9,-30.33
4213.24,-26.63
4226.57,-21.31
4239.9,-10.29
4253.23,-4.51
4266.56,-18.05
4279.9,-18.77
4293.23,22.94
4306.56,68.61
4319.9,76.95
4333.23,54.65
4346.56,16.0
4359.89,-9.8
4373.23,4.83
4386.56,27.87
4399.89,33.26
4413.22,36.36
4426.56,27.7
4439.9,-0.95
4453.22,-26.1
4466.56,-34.46
4479.89,-28.85
4493.23,-23.4
4506.56,-26.32
4519.89,-21.85
4533.22,-15.61
4546.56,-32.16
4559.89,-58.68
4573.22,-73.99
4586.56,-79.71
4599.89,-75.24
4613.22,-68.28
4626.56,-73.1
4639.89,-80.51
4653.22,-79.5
4666.55,-73.79
4679.88,-67.59
4693.22,-66.15
4706.55,-64.07
4719.88,-36.54
4733.22,8.55
4746.55,29.24
4759.89,28.03
4773.22,28.5
4786.55,17.43
4799.88,-9.45
4813.22,-10.56
4826.55,43.45
4839.88,104.45
4853.22,110.14
4866.55,82.19
4879.88,63.76
4893.21,54.38
4906.55,65.47
4919.88,102.24
4933.21,127.23
4946.55,127.45
4959.88,125.47
4973.22,112.49
4986.54,72.36
4999.88,45.91
5013.22,64.74
5026.55,88.98
5039.88,93.45
5053.21,100.99
5066.54,109.19
5079.88,93.82
5093.21,53.82
5106.54,5.01
5119.88,-32.62
5133.21,-44.95
5146.54,-39.75
5159.87,-38.09
5173.21,-55.4
5186.54,-85.28
5199.88,-98.85
5213.21,-83.48
5226.54,-55.78
5239.87,-26.17
5253.2,-2.62
5266.54,-2.66
5279.87,-26.5
5293.2,-57.94
5306.54,-89.23
5319.87,-116.3
5333.2,-136.5
5346.54,-159.44
5359.87,-188.38
5373.2,-210.68
5386.54,-215.52
5399.87,-204.65
5413.2,-188.03
5426.53,-170.22
5439.87,-145.7
5453.2,-114.66
5466.54,-90.88
5479.86,-83.52
5493.2,-83.14
5506.53,-73.59
5519.86,-55.5
5533.2,-40.98
5546.54,-20.99
5559.86,14.67
5573.2,41.43
5586.53,47.07
5599.86,58.4
5613.2,75.97
5626.53,74.12
5639.86,63.22
5653.2,69.43
5666.53,93.57
5679.86,121.18
5693.19,131.77
5706.53,108.55
5719.86,54.51
5733.19,-0.09
5746.52,-6.71
5759.86,37.49
5773.19,74.82
5786.52,83.63
5799.86,92.68
5813.2,101.7
5826.52,93.79
5839.86,84.77
5853.19,91.17
5866.52,99.46
5879.86,96.54
5893.19,86.85
5906.52,78.0
5919.86,78.98
5933.19,86.64
5946.52,87.82
5959.85,94.42
5973.19,114.79
5986.52,111.64
5999.85,68.9
6013.18,40.59
6026.52,55.65
6039.85,67.53
6053.18,48.6
6066.52,28.54
6079.86,31.51
6093.19,44.88
6106.52,52.25
6119.85,71.76
6133.18,113.15
6146.52,132.93
6159.85,112.54
6173.18,96.72
6186.52,95.57
6199.85,76.28
6213.18,41.68
6226.51,5.74
6239.85,-34.08
6253.18,-62.97
6266.51,-62.24
6279.84,-43.51
6293.18,-30.85
6306.52,-22.95
6319.84,-4.2
6333.18,15.61
6346.51,10.41
6359.84,-22.12
6373.18,-55.04
6386.51,-59.8
6399.84,-40.38
6413.18,-33.06
6426.51,-59.24
6439.84,-87.19
6453.18,-74.07
6466.51,-42.66
6479.84,-50.54
6493.17,-90.29
6506.51,-108.68
6519.84,-102.42
6533.17,-107.08
6546.51,-117.43
6559.84,-107.05
6573.17,-97.48
6586.5,-116.07
6599.84,-137.64
6613.17,-141.05
6626.5,-145.77
6639.84,-154.54
6653.17,-144.94
6666.51,-112.58
6679.84,-72.89
6693.17,-43.63
6706.5,-26.35
6719.84,-31.55
6733.17,-87.63
6746.5,-156.37
6759.84,-140.2
6773.17,-14.02
6786.5,135.14
6799.84,199.22
6813.16,168.74
6826.5,123.74
6839.84,107.84
6853.17,97.8
6866.5,76.75
6879.84,56.23
6893.16,43.16
6906.5,30.97
6919.83,17.2
6933.17,5.16
6946.5,-4.43
6959.83,-13.71
6973.16,-22.65
6986.5,-30.28
6999.83,-36.75
7013.16,-42.55
7026.49,-47.75
7039.83,-52.09
7053.16,-59.23
7066.49,-80.11
7079.82,-116.78
7093.16,-148.55
7106.49,-165.15
7119.82,-187.08
7133.16,-223.07
7146.5,-251.48
7159.82,-258.05
7173.16,-258.3
7186.49,-270.2
7199.83,-289.91
7213.16,-298.35
7226.49,-284.73
7239.82,-262.44
7253.16,-242.94
7266.49,-209.27
7279.82,-156.67
7293.15,-112.72
7306.49,-85.71
7319.82,-49.5
7333.16,5.29
7346.48,61.22
7359.82,112.55
7373.15,165.99
7386.49,215.57
7399.82,255.23
7413.15,288.71
7426.48,316.48
7439.82,336.18
7453.15,352.91
7466.48,368.44
7479.82,342.62
7493.15,183.73
7506.48,-135.14
7519.82,-444.34
7533.15,-523.25
7546.48,-397.05
7559.82,-278.29
7573.15,-244.35
7586.48,-211.76
7599.81,-137.5
7613.14,28.84
7626.48,404.53
7639.82,841.12
7653.15,954.82
7666.48,761.05
7679.81,626.75
7693.14,632.41
7706.48,608.4
7719.81,526.1
7733.14,465.54
7746.48,433.52
7759.81,392.66
7773.14,342.82
7786.48,300.98
7799.82,265.98
7813.14,229.77
7826.47,193.6
7839.81,160.93
7853.14,130.76
7866.48,86.57
7879.8,-9.29
7893.14,-151.54
7906.47,-261.66
7919.8,-295.77
7933.14,-291.49
7946.48,-286.94
7959.8,-292.58
7973.14,-306.45
7986.47,-314.45
7999.8,-307.21
8013.14,-292.13
8026.47,-289.6
8039.8,-306.83
8053.14,-312.84
8066.47,-290.11
8079.8,-271.89
8093.14,-274.76
8106.47,-270.18
8119.8,-239.73
8133.14,-197.56
8146.46,-158.98
8159.8,-117.85
8173.13,-63.64
8186.47,-11.43
8199.8,15.21
8213.14,18.38
8226.46,14.1
8239.8,1.62
8253.13,-25.85
8266.47,-50.69
8279.8,-51.3
8293.13,-31.31
8306.46,-2.56
8319.8,33.31
8333.13,64.97
8346.46,67.41
8359.79,42.63
8373.13,22.59
8386.46,21.26
8399.79,26.71
8413.12,33.17
8426.46,48.53
8439.8,81.7
8453.13,125.44
8466.46,150.89
8479.79,145.59
8493.13,135.5
8506.46,135.11
8519.79,128.16
8533.12,114.69
8546.46,112.44
8559.79,124.81
8573.12,143.42
8586.46,159.0
8599.79,167.85
8613.12,174.07
8626.45,175.18
8639.79,167.57
8653.12,164.56
8666.46,176.16
8679.78,185.99
8693.12,170.12
8706.45,129.44
8719.78,89.35
8733.12,66.65
8746.46,56.9
8759.79,51.29
8773.12,43.84
8786.45,32.04
8799.79,14.72
8813.12,-12.51
8826.45,-49.61
8839.78,-86.13
8853.12,-110.01
8866.45,-115.65
8879.78,-114.11
8893.11,-123.04
8906.45,-142.51
8919.78,-168.39
8933.11,-195.71
8946.44,-204.48
8959.78,-188.18
8973.11,-164.36
8986.45,-124.02
8999.78,-88.57
9013.11,-149.5
9026.45,-260.48
9039.78,-350.8
9053.11,-508.48
9066.44,-632.34
9079.78,-522.43
9093.11,-216.66
9106.44,198.17
9119.78,546.28
9133.11,574.45
9146.44,391.25
9159.77,300.43
9173.11,280.92
9186.44,140.0
9199.77,-85.23
9213.1,-192.84
9226.44,-120.44
9239.77,11.9
9253.11,91.59
9266.44,105.92
9279.77,83.38
9293.11,27.89
9306.44,-64.54
9319.77,-159.21
9333.1,-218.71
9346.44,-249.71
9359.77,-274.58
9373.1,-301.73
9386.44,-329.72
9399.77,-351.64
9413.1,-360.32
9426.44,-354.25
9439.77,-335.31
9453.1,-302.03
9466.44,-253.48
9479.76,-205.54
9493.1,-176.69
9506.44,-157.88
9519.76,-130.0
9533.1,-88.77
9546.43,-43.41
9559.76,-11.36
9573.1,-3.52
9586.43,-6.26
9599.77,1.47
9613.1,24.62
9626.43,51.73
9639.76,71.95
9653.1,88.99
9666.43,112.5
9679.76,141.7
9693.09,159.21
9706.43,157.42
9719.76,155.59
9733.09,164.67
9746.43,182.06
9759.76,209.07
9773.09,225.82
9786.43,207.8
9799.76,169.74
9813.1,139.93
9826.42,128.33
9839.76,130.98
9853.09,132.71
9866.43,131.35
9879.76,139.77
9893.09,144.49
9906.42,134.07
9919.76,133.07
9933.09,148.25
9946.42,165.34
9959.76,184.86
9973.09,188.86
9986.42,166.05
9999.75,159.4
10013.08,182.23
10026.42,189.16
10039.76,167.52
10053.08,146.24
10066.42,139.66
10079.76,133.01
10093.08,110.02
10106.42,84.73
10119.75,81.44
10133.09,89.32
10146.42,81.01
10159.75,55.18
10173.08,24.95
10186.42,-3.51
10199.75,-20.47
10213.08,-16.32
10226.41,-7.01
10239.75,-8.91
10253.08,-7.87
10266.41,-0.83
10279.75,14.99
10293.08,65.98
10306.42,137.55
10319.74,172.57
10333.08,93.83
10346.41,-54.21
10359.74,-14.66
10373.08,238.34
10386.41,360.67
10399.76,254.18
10413.08,167.16
10426.41,186.79
10439.74,181.52
10453.08,63.95
10466.41,-140.21
10479.74,-343.94
10493.08,-471.48
10506.41,-500.23
10519.74,-451.41
10533.08,-365.96
10546.41,-272.79
10559.74,-189.7
10573.08,-142.75
10586.4,-142.51
10599.74,-173.11
10613.07,-216.53
10626.4,-250.78
10639.74,-255.34
10653.07,-240.34
10666.4,-230.86
10679.74,-227.17
10693.07,-220.26
10706.4,-214.27
10719.74,-200.63
10733.07,-172.86
10746.4,-152.96
10759.73,-142.55
10773.07,-123.16
10786.4,-104.7
10799.74,-94.13
10813.06,-79.65
10826.4,-64.16
10839.74,-42.83
10853.06,-5.18
10866.4,19.54
10879.73,11.3
10893.06,8.67
10906.4,28.39
10919.73,33.73
10933.07,14.66
10946.4,2.57
10959.73,11.68
10973.06,18.45
10986.4,4.16
10999.73,-10.52
11013.06,-1.85
11026.4,21.42
11039.73,43.42
11053.06,55.9
11066.39,53.67
11079.73,49.68
11093.06,56.84
11106.39,58.83
11119.72,48.43
11133.06,46.43
11146.39,58.48
11159.72,73.82
11173.06,91.65
11186.39,112.8
11199.72,130.39
11213.06,135.98
11226.39,133.21
11239.72,135.96
11253.06,147.45
11266.39,155.22
11279.72,151.86
11293.05,146.7
11306.39,145.41
11319.72,140.45
11333.06,134.59
11346.39,135.77
11359.72,133.69
11373.05,118.89
11386.38,98.11
11399.72,78.33
11413.05,66.56
11426.39,67.09
11439.72,66.73
11453.05,52.71
11466.38,35.4
11479.72,29.77
11493.05,33.39
11506.38,40.42
11519.72,58.94
11533.05,83.08
11546.38,82.47
11559.71,60.25
11573.05,47.29
11586.38,36.42
11599.72,11.43
11613.05,-10.12
11626.38,-12.17
11639.71,-0.9
11653.04,9.15
11666.38,6.51
11679.72,-3.98
11693.04,-10.75
11706.38,-15.44
11719.71,-19.14
11733.04,-17.96
11746.38,-21.49
11759.71,-33.7
11773.04,-38.19
11786.38,-30.9
11799.71,-24.83
11813.04,-25.4
11826.37,-29.78
11839.71,-30.5
11853.04,-23.36
11866.38,-20.09
11879.71,-26.33
11893.04,-28.1
11906.38,-60.03
11919.71,-167.68
11933.04,-213.12
11946.37,-63.53
11959.71,87.65
11973.04,96.39
11986.37,154.24
11999.7,322.41
12013.04,415.07
12026.37,391.63
12039.7,340.91
12053.04,286.35
12066.37,230.58
12079.7,170.41
12093.03,59.21
12106.37,-109.91
12119.7,-233.6
12133.03,-226.12
12146.36,-139.36
12159.7,-67.72
12173.03,-48.58
12186.36,-80.4
12199.7,-142.15
12213.03,-205.52
12226.36,-253.32
12239.7,-277.86
12253.03,-278.55
12266.36,-267.38
12279.7,-266.52
12293.03,-287.98
12306.36,-318.59
12319.7,-338.1
12333.03,-342.52
12346.36,-336.76
12359.7,-316.66
12373.03,-281.86
12386.36,-258.93
12399.69,-260.36
12413.02,-254.15
12426.36,-225.43
12439.69,-197.17
12453.02,-178.96
12466.36,-159.72
12479.69,-137.72
12493.02,-119.16
12506.36,-97.78
12519.69,-62.34
12533.03,-20.54
12546.36,-0.77
12559.69,-12.35
12573.02,-18.09
12586.36,8.26
12599.69,41.09
12613.02,62.48
12626.35,82.28
12639.69,99.52
12653.02,108.22
12666.36,114.77
12679.68,118.23
12693.02,113.57
12706.36,108.2
12719.68,109.7
12733.02,115.72
12746.36,121.33
12759.69,123.73
12773.02,123.41
12786.35,125.11
12799.68,133.12
12813.02,144.44
12826.35,154.75
12839.68,166.29
12853.02,171.53
12866.35,155.12
12879.68,128.35
12893.02,121.83
12906.35,136.52
12919.68,145.52
12933.01,136.55
12946.35,118.87
12959.68,103.18
12973.01,93.54
12986.35,86.04
12999.68,76.73
13013.01,73.24
13026.35,81.16
13039.68,89.41
13053.01,87.7
13066.35,68.67
13079.68,37.56
13093.01,28.29
13106.34,47.84
13119.68,56.3
13133.01,43.63
13146.34,41.45
13159.67,56.86
13173.01,68.95
13186.34,73.04
13199.68,74.14
13213.0,69.51
13226.34,63.47
13239.68,66.93
13253.0,80.08
13266.34,89.74
13279.68,92.21
13293.0,98.44
13306.34,109.62
13319.67,109.26
13333.0,83.82
13346.34,44.51
13359.67,13.04
13373.0,-1.82
13386.34,-5.32
13399.67,-12.26
13413.0,-28.94
13426.33,-43.4
13439.67,-47.19
13453.0,-42.53
13466.34,-31.87
13479.67,-28.7
13493.0,-42.21
13506.33,-47.82
13519.66,-26.99
13533.0,-3.75
13546.33,-3.71
13559.66,-27.14
13573.0,-55.52
13586.33,-66.56
13599.67,-61.68
13613.0,-57.09
13626.33,-57.22
13639.66,-65.51
13653.0,-82.17
13666.33,-89.37
13679.66,-86.31
13692.99,-99.98
13706.33,-122.47
13719.66,-120.83
13732.99,-99.37
13746.33,-76.55
13759.66,-58.21
13772.99,-48.11
13786.33,-46.14
13799.66,-43.77
13812.99,-21.56
13826.33,37.26
13839.66,144.05
13852.99,251.7
13866.32,235.81
13879.66,129.98
13892.99,125.66
13906.32,221.2
13919.66,253.14
13932.99,160.81
13946.32,-6.94
13959.66,-162.53
13972.99,-240.94
13986.32,-265.03
13999.65,-279.6
14012.99,-259.52
14026.32,-180.47
14039.66,-98.35
14052.99,-69.63
14066.32,-78.99
14079.66,-94.8
14092.99,-120.08
14106.32,-151.79
14119.65,-162.16
14132.99,-151.33
14146.32,-151.02
14159.65,-169.51
14172.98,-180.85
14186.32,-168.6
14199.65,-148.43
14212.98,-138.39
14226.31,-131.71
14239.65,-116.69
14252.98,-93.92
14266.31,-57.81
14279.64,-5.84
14292.98,36.02
14306.32,49.51
14319.65,53.15
14332.98,59.77
14346.31,61.86
14359.65,57.51
14372.98,48.15
14386.31,40.06
14399.65,42.24
14412.98,49.47
14426.31,54.98
14439.64,59.33
14452.98,62.68
14466.31,67.17
14479.64,72.37
14492.98,77.38
14506.31,90.04
14519.64,108.03
14532.98,114.9
14546.3,108.33
14559.64,98.96
14572.98,90.23
14586.3,81.78
14599.64,84.81
14612.97,116.69
14626.31,165.96
14639.64,199.05
14652.97,202.85
14666.3,183.2
14679.64,146.27
14692.97,104.41
14706.3,75.02
14719.64,70.05
14732.97,91.78
14746.3,130.09
14759.63,162.62
14772.97,176.43
14786.3,178.07
14799.64,165.25
14812.96,127.79
14826.3,86.07
14839.63,68.01
14852.96,65.29
14866.3,61.97
14879.64,56.18
14892.97,43.07
14906.3,16.62
14919.63,-26.16
14932.96,-76.0
14946.3,-110.02
14959.63,-121.24
14972.96,-114.56
14986.3,-85.3
14999.63,-53.4
15012.96,-56.46
15026.29,-78.07
15039.63,-70.16
15052.96,-33.28
15066.29,-1.63
15079.62,9.37
15092.96,1.2
15106.29,-24.94
15119.62,-55.58
15132.96,-65.84
15146.29,-48.55
15159.63,-30.32
15172.96,-41.63
15186.29,-79.31
15199.62,-129.16
15212.96,-189.65
15226.29,-247.28
15239.62,-281.18
15252.96,-284.89
15266.29,-260.61
15279.62,-225.0
15292.96,-207.12
15306.29,-202.48
15319.62,-181.11
15332.95,-151.33
15346.29,-142.13
15359.62,-139.99
15372.96,-118.65
15386.28,-89.94
15399.62,-71.52
15412.95,-56.06
15426.28,-33.02
15439.62,1.6
15452.95,43.71
15466.29,75.58
15479.62,74.81
15492.95,35.37
15506.28,-17.42
15519.62,-57.0
15532.95,-85.11
15546.28,-90.02
15559.61,-9.35
15572.95,173.4
15586.28,280.22
15599.61,163.23
15612.95,50.89
15626.28,179.91
15639.61,344.88
15652.94,310.62
15666.28,203.15
15679.62,182.72
15692.94,194.78
15706.28,166.92
15719.61,129.39
15732.95,113.33
15746.28,101.9
15759.61,82.3
15772.94,63.03
15786.28,49.46
15799.61,12.23
15812.94,-110.11
15826.28,-301.1
15839.61,-425.89
15852.94,-422.17
15866.28,-379.61
15879.61,-371.29
15892.94,-375.14
15906.27,-359.9
15919.6,-329.47
15932.94,-298.74
15946.27,-275.71
15959.6,-253.72
15972.94,-218.99
15986.27,-174.85
15999.61,-138.29
16012.94,-110.58
16026.27,-79.43
16039.6,-38.6
16052.94,5.8
16066.27,35.54
16079.6,53.78
16092.94,88.06
16106.27,130.0
16119.6,156.68
16132.94,177.86
16146.26,196.4
16159.6,203.46
16172.93,204.6
16186.26,207.66
16199.6,215.81
16212.93,231.3
16226.27,254.3
16239.6,277.31
16252.93,283.02
16266.26,260.12
16279.6,223.67
16292.93,199.47
16306.26,183.52
16319.6,161.31
16332.93,147.2
16346.26,152.87
16359.59,167.2
16372.93,175.23
16386.26,164.99
16399.59,144.73
16412.93,136.0
16426.26,140.69
16439.59,152.15
16452.92,164.84
16466.26,163.03
16479.59,148.41
16492.92,150.95
16506.26,168.98
16519.59,166.32
16532.92,142.64
16546.26,122.1
16559.59,107.08
16572.92,94.5
16586.26,84.91
16599.59,73.75
16612.92,63.56
16626.25,58.26
16639.59,48.04
16652.92,21.58
16666.25,-10.37
16679.58,-21.95
16692.92,-12.9
16706.26,-7.93
16719.58,-13.51
16732.92,-18.38
16746.25,-18.72
16759.59,-15.33
16772.92,-12.93
16786.25,-15.47
16799.58,-13.6
16812.92,-7.24
16826.25,-13.33
16839.58,-33.94
16852.92,-52.78
16866.25,-56.2
16879.58,-46.25
16892.92,-36.55
16906.25,-34.18
16919.58,-39.87
16932.91,-55.36
16946.25,-69.44
16959.58,-71.16
16972.92,-72.8
16986.25,-80.58
16999.58,-82.56
17012.92,-80.35
17026.25,-87.31
17039.58,-96.9
17052.91,-89.04
17066.25,-68.63
17079.58,-54.49
17092.91,-46.46
17106.24,-49.28
17119.58,-72.42
17132.91,-94.63
17146.24,-95.63
17159.58,-88.91
17172.91,-99.7
17186.24,-126.14
17199.57,-125.87
17212.91,-80.98
17226.24,-29.52
17239.58,-8.84
17252.91,-23.77
17266.24,-58.38
17279.57,-101.08
17292.91,-118.2
17306.24,-26.59
17319.57,146.1
17332.91,212.72
17346.24,133.14
17359.57,69.92
17372.9,73.17
17386.24,59.3
17399.57,15.58
17412.91,-13.89
17426.23,-27.27
17439.57,-45.54
17452.91,-67.7
17466.23,-84.41
17479.57,-96.97
17492.91,-109.75
17506.23,-122.07
17519.57,-131.78
17532.9,-139.8
17546.23,-146.97
17559.57,-152.95
17572.9,-157.54
17586.23,-160.95
17599.57,-163.53
17612.9,-181.48
17626.23,-256.2
17639.56,-385.54
17652.9,-488.97
17666.23,-529.04
17679.56,-556.48
17692.9,-595.59
17706.23,-611.61
17719.56,-584.12
17732.9,-529.83
17746.23,-467.41
17759.57,-398.23
17772.89,-320.55
17786.23,-242.1
17799.56,-175.91
17812.9,-128.66
17826.23,-97.64
17839.56,-76.15
17852.89,-57.0
17866.23,-25.42
17879.56,29.22
17892.89,89.83
17906.23,133.24
17919.56,170.37
17932.89,220.52
17946.23,272.5
17959.56,305.45
17972.89,317.07
17986.22,315.44
17999.55,310.12
18012.89,314.66
18026.22,328.38
18039.55,327.43
18052.89,311.52
18066.22,307.86
18079.55,313.65
18092.89,311.04
18106.22,298.01
18119.55,278.04
18132.89,267.23
18146.22,274.79
18159.55,281.38
18172.89,271.22
18186.22,259.23
18199.55,266.33
18212.88,282.52
18226.21,272.06
18239.55,231.08
18252.89,207.73
18266.21,221.48
18279.55,232.55
18292.88,218.53
18306.22,192.94
18319.55,162.97
18332.88,134.9
18346.21,120.62
18359.55,122.16
18372.88,131.83
18386.21,139.3
18399.55,140.73
18412.88,138.44
18426.21,123.35
18439.54,92.3
18452.88,71.28
18466.21,72.02
18479.54,69.86
18492.87,62.17
18506.21,68.77
18519.54,73.86
18532.87,54.45
18546.21,29.67
18559.54,25.14
18572.87,38.49
18586.2,54.97
18599.54,62.71
18612.87,59.55
18626.2,51.28
18639.54,37.45
18652.87,15.02
18666.21,-3.47
18679.54,-2.98
18692.87,5.01
18706.2,-0.09
18719.54,-10.9
18732.87,-14.11
18746.2,-20.18
18759.54,-30.07
18772.87,-27.36
18786.2,-15.85
18799.53,-12.84
18812.87,-24.41
18826.2,-46.89
18839.54,-73.03
18852.87,-92.22
18866.2,-97.77
18879.53,-95.29
18892.86,-83.85
18906.2,-63.13
18919.53,-63.77
18932.86,-93.49
18946.2,-112.76
18959.53,-119.15
18972.86,-139.79
18986.2,-156.39
18999.53,-151.58
19012.86,-152.34
19026.19,-164.46
19039.53,-161.4
19052.86,-145.31
19066.19,-143.14
19079.52,-156.51
19092.86,-157.71
19106.19,-138.59
19119.53,-125.59
19132.86,-129.59
19146.19,-137.41
19159.52,-145.82
19172.86,-149.61
19186.19,-134.65
19199.53,-103.51
19212.86,-64.91
19226.19,-14.59
19239.52,67.71
19252.86,202.61
19266.19,332.05
19279.52,344.36
19292.86,256.41
19306.19,189.82
19319.52,171.13
19332.86,144.54
19346.18,100.45
19359.52,65.14
19372.86,41.11
19386.19,16.11
19399.52,-10.46
19412.86,-50.05
19426.19,-139.57
19439.52,-264.84
19452.85,-348.59
19466.18,-386.92
19479.52,-442.62
19492.85,-502.77
19506.18,-515.03
19519.52,-495.56
19532.85,-478.08
19546.18,-451.34
19559.51,-410.24
19572.85,-373.53
19586.18,-349.04
19599.51,-333.28
19612.85,-318.49
19626.18,-295.16
19639.52,-260.03
19652.85,-216.42
19666.18,-165.28
19679.51,-104.42
19692.85,-46.18
19706.18,-13.04
19719.51,-4.69
19732.84,5.7
19746.18,31.04
19759.51,56.58
19772.84,81.83
19786.18,125.27
19799.51,170.05
19812.84,185.16
19826.17,185.68
19839.51,198.67
19852.84,219.72
19866.17,234.47
19879.51,239.82
19892.84,240.0
19906.18,240.62
19919.5,249.47
19932.84,277.66
19946.18,313.11
19959.5,311.95
19972.84,266.22
19986.17,225.51
19999.51,206.43
20012.84,176.42
20026.17,137.2
20039.5,116.6
20052.84,110.78
20066.17,111.68
20079.5,123.26
20092.83,133.09
20106.17,130.33
20119.5,123.52
20132.83,118.48
20146.16,119.48
20159.5,131.17
20172.83,143.13
20186.17,144.65
20199.5,135.31
20212.84,119.79
20226.16,112.96
20239.5,120.05
20252.83,117.08
20266.17,91.05
20279.5,72.16
20292.83,81.71
20306.16,94.73
20319.5,90.79
20332.83,85.37
20346.16,88.67
20359.49,85.24
20372.83,69.26
20386.16,54.8
20399.5,52.91
20412.83,57.34
20426.16,51.52
20439.49,38.15
20452.83,39.49
20466.16,49.39
20479.49,45.1
20492.83,41.03
20506.16,51.0
20519.49,47.27
20532.83,19.51
20546.16,1.79
20559.49,13.11
20572.82,33.27
20586.16,42.56
20599.49,38.57
20612.82,24.54
20626.15,9.6
20639.49,1.14
20652.83,-0.26
20666.16,0.24
20679.49,-11.85
20692.83,-32.64
20706.15,-33.23
20719.49,-19.19
20732.82,-33.74
20746.16,-69.9
20759.49,-69.94
20772.82,-38.03
20786.15,-41.82
20799.49,-87.32
20812.82,-119.35
20826.15,-126.45
20839.48,-130.81
20852.82,-131.35
20866.15,-117.53
20879.48,-79.03
20892.81,-12.39
20906.15,60.95
20919.48,107.5
20932.82,101.96
20946.15,34.61
20959.48,-83.08
20972.82,-216.17
20986.15,-317.8
20999.48,-345.57
21012.81,-291.39
21026.15,-214.06
21039.48,-186.4
21052.81,-203.84
21066.15,-205.49
21079.48,-167.11
21092.81,-113.07
21106.14,-51.83
21119.48,26.29
21132.81,98.28
21146.15,128.23
21159.48,112.91
21172.81,87.93
21186.14,103.45
21199.48,163.27
21212.81,232.0
21226.15,298.23
21239.47,334.91
21252.81,296.64
21266.14,219.64
21279.47,172.57
21292.81,148.3
21306.14,113.3
21319.47,73.14
21332.81,42.45
21346.14,16.92
21359.47,-9.69
21372.81,-34.85
21386.14,-56.24
21399.47,-75.48
21412.8,-93.45
21426.14,-109.58
21439.47,-123.9
21452.8,-136.49
21466.13,-147.63
21479.47,-157.12
21492.8,-165.21
21506.13,-171.81
21519.47,-176.84
21532.8,-180.62
21546.14,-183.65
21559.47,-185.86
21572.8,-186.98
21586.13,-187.01
21599.47,-186.22
21612.8,-184.49
21626.13,-181.74
21639.46,-178.25
21652.8,-174.37
21666.13,-170.34
21679.46,-165.77
21692.8,-160.59
21706.13,-154.87
21719.46,-148.34
21732.79,-141.48
21746.12,-134.65
21759.46,-127.65
21772.79,-120.23
21786.12,-112.61
21799.46,-104.8
21812.8,-96.9
21826.12,-88.85
21839.46,-80.77
21852.79,-72.67
21866.12,-64.47
21879.46,-56.35
21892.79,-48.26
21906.12,-40.17
21919.46,-32.26
21932.79,-24.38
21946.12,-16.63
21959.45,-8.98
21972.79,-1.5
21986.12,5.77
21999.46,12.85
22012.78,19.78
22026.12,26.46
22039.46,32.95
22052.78,39.22
22066.12,45.26
22079.46,51.0
22092.78,56.54
22106.12,61.85
22119.45,66.82
22132.79,71.55
22146.12,76.01
22159.45,80.2
22172.78,84.15
22186.12,87.79
22199.45,91.12
22212.78,94.25
22226.11,97.08
22239.45,99.63
22252.78,101.93
22266.12,103.95
22279.45,105.72
22292.78,107.2
22306.11,108.43
22319.45,109.45
22332.78,110.21
22346.11,110.7
22359.44,110.97
22372.78,111.04
22386.11,110.86
22399.45,110.45
22412.78,109.85
22426.11,109.06
22439.44,108.1
22452.78,106.93
22466.11,105.6
22479.44,104.13
22492.78,102.49
22506.11,100.62
22519.44,98.63
22532.78,96.55
22546.1,94.29
22559.44,91.96
22572.77,89.45
22586.11,86.93
22599.44,84.23
22612.77,81.41
22626.1,78.61
22639.44,75.73
22652.77,72.7
22666.11,69.7
22679.44,66.54
22692.77,63.48
22706.1,60.29
22719.44,56.96
22732.77,53.51
22746.1,50.19
22759.44,47.4
22772.77,44.48
22786.1,41.07
22799.43,37.69
22812.76,34.41
22826.1,30.92
22839.44,27.74
22852.76,24.92
22866.1,22.21
22879.43,18.91
22892.77,15.43
22906.1,12.34
22919.43,9.71
22932.76,6.89
22946.1,4.13
22959.43,1.46
22972.76,-0.76
22986.1,-3.15
22999.43,-5.72
23012.76,-8.33
23026.1,-10.65
23039.43,-13.01
23052.76,-15.53
23066.1,-17.81
23079.42,-19.68
23092.76,-21.46
23106.09,-23.02
23119.42,-24.69
23132.76,-26.5
23146.1,-28.47
23159.42,-30.14
23172.76,-31.39
23186.09,-32.55
23199.42,-33.86
23212.76,-35.27
23226.09,-36.13
23239.42,-36.78
23252.76,-37.97
23266.09,-39.05
23279.42,-39.6
23292.75,-39.93
23306.09,-40.57
23319.42,-40.98
23332.75,-41.25
23346.08,-41.5
23359.42,-41.61
23372.76,-41.77
23386.08,-41.78
23399.42,-41.73
23412.75,-41.66
23426.08,-41.4
23439.42,-41.2
23452.75,-41.0
23466.09,-40.61
23479.42,-40.15
23492.75,-39.71
23506.08,-39.2
23519.42,-38.77
23532.75,-38.41
23546.08,-38.0
23559.42,-37.22
23572.75,-36.64
23586.08,-36.03
23599.42,-35.18
23612.75,-34.04
23626.08,-33.13
23639.41,-32.19
23652.75,-31.1
23666.08,-29.73
23679.42,-28.36
23692.75,-27.54
23706.08,-26.95
23719.41,-25.95
23732.75,-24.94
23746.08,-23.73
23759.41,-22.64
23772.74,-21.8
23786.08,-21.06
23799.41,-19.81
23812.75,-18.57
23826.08,-17.52
23839.41,-16.54
23852.75,-15.43
23866.07,-14.32
23879.41,-13.23
23892.75,-12.21
23906.08,-11.07
23919.41,-10.08
23932.74,-9.09
23946.07,-8.12
23959.41,-7.17
23972.74,-6.24
23986.07,-5.32
23999.41,-4.36
24012.74,-3.42
24026.07,-2.62
24039.41,-1.73
24052.74,-1.04
24066.07,-0.62
24079.4,-0.28
24092.74,0.43
24106.07,1.42
24119.4,2.26
24132.73,2.95
24146.07,3.6
24159.41,4.42
24172.73,5.02
24186.07,5.59
24199.4,6.14
24212.73,6.78
24226.07,6.08
24239.4,-46.05
24252.73,-213.75
24266.07,-395.18
24279.4,-442.55
24292.73,-389.44
24306.07,-302.66
24319.4,-256.32
24332.73,-345.08
24346.06,-432.89
24359.4,-334.22
24372.73,-173.02
24386.06,-109.65
24399.39,-76.66
24412.73,-14.3
24426.07,27.11
24439.39,32.62
24452.73,45.52
24466.06,89.13
24479.4,137.34
24492.73,165.75
24506.06,186.87
24519.39,203.67
24532.73,199.69
24546.06,186.27
24559.39,187.53
24572.72,196.98
24586.06,200.12
24599.39,204.62
24612.72,211.43
24626.05,209.33
24639.39,203.39
24652.72,202.17
24666.06,196.98
24679.39,175.96
24692.73,141.68
24706.06,111.98
24719.39,93.02
24732.72,66.66
24746.05,37.01
24759.39,39.74
24772.72,83.48
24786.05,137.1
24799.39,171.13
24812.72,192.48
24826.05,224.48
24839.38,254.49
24852.72,253.1
24866.05,228.01
24879.39,204.55
24892.72,192.19
24906.05,193.11
24919.38,204.45
24932.72,214.93
24946.05,215.02
24959.38,200.77
24972.72,181.34
24986.05,167.45
24999.38,149.63
25012.71,122.91
25026.05,105.61
25039.38,100.09
25052.71,92.56
25066.05,88.24
25079.38,92.01
25092.71,91.07
25106.04,75.97
25119.38,51.26
25132.71,37.06
25146.05,41.81
25159.38,37.47
25172.71,4.08
25186.04,-40.05
25199.37,-76.56
25212.71,-99.57
25226.05,-101.18
25239.37,-93.83
25252.7,-101.35
25266.04,-105.54
25279.37,-82.31
25292.71,-59.94
25306.04,-71.03
25319.37,-106.16
25332.71,-129.68
25346.04,-114.88
25359.37,-80.73
25372.7,-71.09
25386.04,-95.46
25399.37,-126.56
25412.7,-132.0
25426.03,-94.13
25439.37,-41.11
25452.7,-36.89
25466.04,-82.06
25479.36,-99.02
25492.7,-63.13
25506.03,-30.67
25519.36,-34.02
25532.7,-59.69
25546.03,-98.37
25559.37,-138.88
25572.7,-147.45
25586.03,-117.12
25599.36,-93.79
25612.7,-97.6
25626.03,-95.52
25639.36,-72.62
25652.7,-50.95
25666.03,-56.16
25679.36,-103.58
25692.7,-172.08
25706.03,-211.7
25719.36,-207.99
25732.69,-194.91
25746.03,-199.34
25759.36,-210.28
25772.69,-202.34
25786.03,-171.8
25799.36,-143.81
25812.69,-147.87
25826.02,-170.88
25839.36,-160.61
25852.69,-109.84
25866.02,-76.87
25879.36,-97.04
25892.69,-130.75
25906.02,-127.8
25919.36,-102.9
25932.69,-100.39
25946.02,-114.84
25959.35,-111.2
25972.69,-96.12
25986.02,-92.45
25999.36,-90.45
26012.68,-46.16
26026.02,46.36
26039.35,46.78
26052.68,-102.94
26066.02,-205.7
26079.35,-182.59
26092.69,-109.94
26106.02,50.88
26119.35,266.58
26132.68,371.73
26146.02,297.41
26159.35,72.45
26172.68,-167.09
26186.02,-211.05
26199.35,-64.02
26212.68,55.48
26226.01,65.03
26239.35,60.28
26252.68,70.05
26266.02,53.96
26279.35,34.95
26292.68,38.13
26306.01,36.04
26319.34,22.85
26332.68,23.67
26346.01,33.63
26359.34,27.35
26372.68,7.37
26386.01,-3.73
26399.35,-0.51
26412.68,3.72
26426.01,9.07
26439.34,28.77
26452.68,56.24
26466.01,69.9
26479.34,69.21
26492.68,74.34
26506.01,90.39
26519.34,101.78
26532.67,99.59
26546.01,90.82
26559.34,76.74
26572.67,56.53
26586.01,49.05
26599.34,61.98
26612.68,82.95
26626.0,102.44
26639.34,99.32
26652.67,68.68
26666.0,45.09
26679.34,37.51
26692.67,25.06
26706.0,19.11
26719.34,30.3
26732.67,36.58
26746.0,42.43
26759.33,71.44
26772.67,102.16
26786.0,101.5
26799.33,79.28
26812.66,61.98
26826.0,58.63
26839.34,58.84
26852.66,45.54
26866.0,21.29
26879.34,9.89
26892.66,18.37
26906.0,15.49
26919.33,-31.08
26932.66,-83.08
26946.0,-51.84
26959.33,54.29
26972.66,128.04
26986.0,145.46
26999.33,163.81
27012.66,181.93
27026.0,166.15
27039.33,122.97
27052.66,71.03
27065.99,20.49
27079.33,-8.76
27092.66,0.66
27105.99,32.1
27119.33,51.65
27132.66,47.28
27146.0,34.69
27159.33,47.74
27172.66,107.05
27185.99,166.13
27199.33,168.56
27212.66,165.95
27225.99,225.33
27239.32,273.27
27252.66,230.52
27265.99,158.52
27279.32,127.54
27292.66,111.85
27306.0,79.45
27319.33,44.68
27332.65,21.0
27345.99,0.38
27359.33,-22.61
27372.66,-44.04
27385.99,-62.02
27399.32,-78.53
27412.66,-94.27
27425.99,-108.32
27439.32,-120.61
27452.65,-131.64
27465.99,-141.49
27479.32,-150.1
27492.65,-157.38
27505.99,-163.65
27519.32,-168.78
27532.65,-173.0
27545.98,-176.23
27559.31,-178.55
27572.65,-180.04
27585.99,-180.68
27599.31,-180.61
27612.65,-179.84
27625.99,-178.41
27639.31,-176.4
27652.65,-173.78
27665.98,-170.64
27679.31,-167.09
27692.65,-162.98
27705.98,-158.52
27719.31,-153.7
27732.65,-148.55
27745.98,-143.07
27759.31,-137.32
27772.64,-131.36
27785.98,-125.16
27799.31,-118.78
27812.64,-112.32
27825.98,-105.67
27839.31,-98.96
27852.65,-92.15
27865.97,-85.32
27879.31,-78.43
27892.64,-71.55
27905.98,-64.64
27919.31,-57.82
27932.64,-51.02
27945.97,-44.27
27959.31,-37.63
27972.64,-31.05
27985.97,-24.63
27999.31,-18.26
28012.64,-12.06
28025.97,-6.0
28039.3,-0.14
28052.64,5.6
28065.97,11.15
28079.3,16.55
28092.63,21.78
28105.97,26.78
28119.3,31.58
28132.63,36.15
28145.97,40.52
28159.3,44.74
28172.63,48.66
28185.97,52.45
28199.3,55.99
28212.63,59.32
28225.97,62.41
28239.3,65.34
28252.63,67.97
28265.97,70.43
28279.3,72.66
28292.63,74.69
28305.96,76.56
28319.3,78.12
28332.63,79.52
28345.96,80.74
28359.29,81.76
28372.63,82.53
28385.96,83.17
28399.29,83.61
28412.62,83.71
28425.96,83.6
28439.29,83.46
28452.63,83.56
28465.96,83.54
28479.29,82.78
28492.62,81.88
28505.96,81.13
28519.29,80.18
28532.62,79.08
28545.96,77.75
28559.29,76.45
28572.62,75.0
28585.96,73.4
28599.29,71.78
28612.62,69.96
28625.95,68.07
28639.29,66.19
28652.62,64.12
28665.95,62.13
28679.28,59.97
28692.62,57.64
28705.95,55.16
28719.28,52.79
28732.62,50.83
28745.96,48.78
28759.28,45.95
28772.62,43.27
28785.95,41.39
28799.29,39.32
28812.62,36.62
28825.95,33.56
28839.28,30.84
28852.62,28.85
28865.95,27.12
28879.28,24.89
28892.61,22.19
28905.95,19.71
28919.28,17.16
28932.62,14.71
28945.95,12.44
28959.28,10.03
28972.62,8.05
28985.94,6.19
28999.28,4.11
29012.61,1.85
29025.95,-0.41
29039.28,-2.42
29052.61,-4.11
29065.95,-5.49
29079.28,-7.13
29092.61,-9.34
29105.94,-11.21
29119.28,-12.62
29132.61,-13.85
29145.94,-15.08
29159.28,-16.37
29172.61,-18.09
29185.94,-19.66
29199.28,-20.65
29212.61,-21.58
29225.94,-22.56
29239.28,-23.41
29252.61,-24.2
29265.94,-25.41
29279.27,-26.49
29292.6,-27.11
29305.94,-27.54
29319.27,-28.22
29332.61,-28.76
29345.94,-29.24
29359.27,-29.53
29372.6,-29.89
29385.94,-30.18
29399.27,-30.41
29412.6,-30.58
29425.94,-30.69
29439.27,-30.74
29452.6,-30.74
29465.93,-30.68
29479.26,-30.58
29492.6,-30.42
29505.93,-30.21
29519.27,-29.96
29532.6,-29.73
29545.94,-29.45
29559.27,-29.06
29572.6,-28.64
29585.93,-28.3
29599.27,-27.8
29612.6,-27.21
29625.93,-26.77
29639.26,-26.18
29652.6,-25.62
29665.93,-25.03
29679.26,-24.35
29692.59,-23.66
29705.93,-23.0
29719.26,-22.33
29732.59,-21.63
29745.93,-20.92
29759.26,-20.2
29772.6,-19.46
29785.92,-18.65
29799.26,-17.95
29812.59,-17.12
29825.93,-16.42
29839.26,-15.64
29852.59,-14.73
29865.93,-13.95
29879.26,-13.23
29892.59,-12.39
29905.93,-11.67
29919.26,-10.84
29932.59,-10.07
29945.92,-9.31
29959.25,-8.55
29972.59,-7.8
29985.92,-7.13
29999.25,-6.33
30012.58,-5.62
30025.92,-4.91
30039.26,-4.28
30052.58,-3.54
30065.92,-2.88
30079.25,-2.23
30092.58,-1.6
30105.92,-0.98
30119.25,-0.45
30132.58,0.2
30145.92,0.76
30159.25,1.3
30172.58,1.83
30185.92,2.33
30199.25,2.82
30212.58,3.28
30225.91,3.67
30239.25,4.1
30252.58,4.5
30265.91,4.76
30279.25,4.89
30292.58,5.18
30305.92,5.9
30319.25,6.46
30332.58,6.74
30345.92,6.75
30359.25,6.99
30372.58,6.91
30385.91,6.63
30399.25,6.72
30412.58,7.23
30425.91,7.53
30439.24,7.61
30452.58,7.81
30465.91,8.05
30479.24,8.21
30492.57,8.22
30505.91,8.34
30519.24,8.44
30532.57,8.53
30545.91,8.53
30559.24,8.52
30572.57,8.5
30585.91,8.52
30599.24,8.47
30612.58,8.28
30625.91,-5.67
30639.24,-68.06
30652.57,-179.17
30665.91,-260.93
30679.24,-245.97
30692.57,-174.3
30705.9,-128.15
30719.24,-120.75
30732.57,-115.74
30745.91,-104.93
30759.24,-107.46
30772.57,-124.28
30785.9,-129.53
30799.23,-104.55
30812.57,-59.65
30825.91,-46.96
30839.23,-153.33
30852.57,-373.58
30865.9,-527.94
30879.23,-480.57
30892.57,-340.59
30905.9,-262.23
30919.23,-191.3
30932.57,54.17
30945.9,481.4
30959.23,809.86
30972.56,809.44
30985.9,588.98
30999.23,381.36
31012.57,271.94
31025.89,222.68
31039.23,187.16
31052.56,166.56
31065.9,183.31
31079.23,218.91
31092.56,231.94
31105.89,226.35
31119.23,223.05
31132.56,204.41
31145.89,163.44
31159.23,131.12
31172.56,119.41
31185.89,116.34
31199.23,115.45
31212.56,105.82
31225.89,82.4
31239.22,66.86
31252.56,72.28
31265.89,81.81
31279.23,91.06
31292.56,108.93
31305.89,118.54
31319.22,101.26
31332.55,76.46
31345.89,70.48
31359.22,72.66
31372.55,60.42
31385.89,40.76
31399.22,30.29
31412.55,25.12
31425.89,12.53
31439.22,-9.5
31452.55,-31.63
31465.89,-41.3
31479.22,-37.2
31492.55,-36.25
31505.89,-48.64
31519.22,-57.88
31532.55,-54.08
31545.89,-57.58
31559.22,-89.03
31572.55,-146.27
31585.88,-214.12
31599.21,-274.71
31612.55,-310.64
31625.88,-328.06
31639.21,-358.83
31652.55,-387.42
31665.88,-359.13
31679.22,-291.65
31692.55,-246.95
31705.88,-224.78
31719.21,-194.05
31732.55,-156.71
31745.88,-127.31
31759.21,-103.77
31772.55,-79.14
31785.88,-54.82
31799.21,-33.93
31812.54,-15.19
31825.87,3.15
31839.21,20.18
31852.54,34.61
31865.87,47.32
31879.2,59.34
31892.54,70.25
31905.88,79.63
31919.21,87.76
31932.54,94.88
31945.87,100.76
31959.2,105.74
31972.54,110.17
31985.87,113.94
31999.2,116.55
32012.54,118.02
32025.87,119.19
32039.2,120.23
32052.54,120.12
32065.87,118.7
32079.2,117.11
32092.54,115.65
32105.87,113.47
32119.2,110.44
32132.53,107.56
32145.87,104.52
32159.2,100.68
32172.53,96.45
32185.86,92.21
32199.2,87.72
32212.53,82.75
32225.87,77.79
32239.2,73.24
32252.53,68.54
32265.86,63.23
32279.2,57.84
32292.53,52.65
32305.86,47.45
32319.2,42.13
32332.53,36.83
32345.86,31.64
32359.19,26.45
32372.53,21.32
32385.86,16.25
32399.2,11.32
32412.52,6.46
32425.86,1.69
32439.19,-2.94
32452.53,-7.44
32465.86,-11.7
32479.19,83.79
32492.52,455.26
32505.86,900.17
32519.19,933.68
32532.52,634.95
32545.86,474.22
32559.19,480.96
32572.52,421.96
32585.86,298.67
32599.19,218.65
32612.52,172.23
32625.86,110.51
32639.19,41.7
32652.52,-12.59
32665.85,-58.23
32679.19,-104.89
32692.52,-149.34
32705.85,-187.63
32719.18,-221.82
32732.52,-253.84
32745.86,-282.69
32759.18,-307.89
32772.51,-330.08
32785.85,-349.88
32799.18,-367.05
32812.51,-381.53
32825.85,-393.23
32839.18,-402.56
32852.52,-409.78
32865.85,-415.28
32879.18,-419.16
32892.51,-420.8
32905.85,-420.33
32919.18,-418.3
32932.51,-415.0
32945.84,-410.23
32959.18,-404.05
32972.51,-396.66
32985.84,-388.27
32999.18,-378.8
33012.51,-380.0
33025.84,-441.91
33039.17,-606.11
33052.51,-785.69
33065.84,-829.23
33079.18,-735.92
33092.51,-628.52
33105.84,-558.89
33119.17,-497.7
33132.51,-438.77
33145.84,-410.69
33159.17,-416.1
33172.51,-428.25
33185.84,-446.61
33199.17,-482.4
33212.5,-488.44
33225.84,-413.59
33239.17,-304.23
33252.51,-228.19
33265.83,-174.21
33279.17,-109.82
33292.51,-42.38
33305.83,13.85
33319.17,63.48
33332.51,113.05
33345.83,159.97
33359.17,201.38
33372.5,239.45
33385.83,275.59
33399.17,308.7
33412.5,337.83
33425.83,363.66
33439.17,387.34
33452.5,408.88
33465.83,427.83
33479.16,444.16
33492.5,458.0
33505.83,469.61
33519.16,479.03
33532.5,486.75
33545.83,492.66
33559.16,496.28
33572.5,498.13
33585.83,498.44
33599.16,497.28
33612.5,494.53
33625.83,490.47
33639.16,485.11
33652.5,478.56
33665.83,470.8
33679.16,462.06
33692.5,452.31
33705.83,441.67
33719.16,430.19
33732.5,417.94
33745.82,405.03
33759.16,391.38
33772.49,376.98
33785.82,362.31
33799.16,347.64
33812.49,332.55
33825.83,316.66
33839.16,300.48
33852.49,284.27
33865.83,267.89
33879.16,251.33
33892.49,234.67
33905.82,218.03
33919.16,201.38
33932.49,184.77
33945.82,168.38
33959.15,152.2
33972.49,136.16
33985.82,119.94
33999.16,103.95
34012.49,88.47
34025.82,73.42
34039.16,58.4
34052.49,43.23
34065.82,38.42
34079.16,110.39
34092.49,355.76
34105.82,692.44
34119.15,846.19
34132.48,730.68
34145.82,554.46
34159.15,463.6
34172.48,400.82
34185.82,307.45
34199.15,212.08
34212.48,139.2
34225.81,73.31
34239.15,3.94
34252.48,-60.98
34265.82,-117.48
34279.14,-169.76
34292.48,-219.58
34305.82,-265.1
34319.14,-305.89
34332.48,-343.1
34345.82,-377.02
34359.15,-407.33
34372.48,-434.22
34385.81,-457.97
34399.14,-478.7
34412.48,-496.47
34425.81,-511.52
34439.14,-523.91
34452.48,-533.78
34465.81,-541.2
34479.14,-546.44
34492.48,-549.52
34505.81,-550.53
34519.14,-549.59
34532.48,-546.67
34545.8,-542.19
34559.14,-536.69
34572.48,-529.59
34585.8,-520.67
34599.14,-510.45
34612.47,-499.31
34625.8,-487.03
34639.14,-473.66
34652.47,-459.41
34665.8,-444.34
34679.14,-428.58
34692.47,-412.09
34705.8,-395.16
34719.14,-377.83
34732.47,-359.91
34745.8,-341.16
34759.13,-322.13
34772.47,-303.28
34785.8,-284.44
34799.13,-265.47
34812.47,-246.52
34825.8,-227.25
34839.13,-207.28
34852.46,-187.55
34865.8,-168.69
34879.14,-150.08
34892.47,-131.05
34905.8,-112.53
34919.13,-94.86
34932.46,-77.3
34945.8,-59.41
34959.13,-42.04
34972.46,-25.25
34985.8,-8.95
34999.13,7.13
35012.46,22.65
35025.79,37.57
35039.13,52.0
35052.46,66.04
35065.8,79.45
35079.13,74.69
35092.46,8.03
35105.8,-112.03
35119.13,-190.03
35132.46,-181.9
35145.8,-144.67
35159.12,-114.04
35172.46,-73.23
35185.79,-17.18
35199.13,30.54
35212.46,54.16
35225.79,75.68
35239.12,117.58
35252.46,162.1
35265.79,190.41
35279.12,210.77
35292.45,233.85
35305.79,260.84
35319.12,275.99
35332.45,265.1
35345.79,254.46
35359.12,275.48
35372.46,315.84
35385.79,349.11
35399.12,363.47
35412.45,360.39
35425.79,350.25
35439.12,342.61
35452.45,342.06
35465.79,348.72
35479.12,360.03
35492.45,373.17
35505.78,389.2
35519.12,405.3
35532.45,405.17
35545.78,378.31
35559.11,345.33
35572.45,329.8
35585.78,327.31
35599.11,328.63
35612.44,333.66
35625.78,332.42
35639.12,312.67
35652.44,288.0
35665.78,278.59
35679.11,275.48
35692.45,260.48
35705.78,236.39
35719.11,217.14
35732.44,208.17
35745.78,207.39
35759.12,212.06
35772.44,222.11
35785.78,233.17
35799.11,231.06
35812.44,206.23
35825.78,168.75
35839.11,136.77
35852.44,117.97
35865.78,110.33
35879.1,109.66
35892.44,97.9
35905.78,58.19
35919.1,4.94
35932.44,-18.81
35945.77,-17.39
35959.11,-47.76
35972.44,-35.32
35985.77,59.75
35999.11,13.49
36012.44,-197.21
36025.77,-252.09
36039.1,-59.09
36052.44,105.31
36065.77,46.34
36079.1,-80.54
36092.44,-71.48
36105.77,-0.01
36119.1,-18.64
36132.44,-97.98
36145.76,-143.15
36159.1,-135.56
36172.44,-93.06
36185.76,-45.85
36199.1,-14.83
36212.43,7.52
36225.76,15.76
36239.1,-7.37
36252.43,-50.81
36265.76,-86.89
36279.1,-105.99
36292.43,-116.67
36305.76,-128.38
36319.1,-143.0
36332.43,-157.87
36345.76,-175.09
36359.09,-192.62
36372.43,-198.35
36385.76,-186.32
36399.09,-164.14
36412.43,-148.23
36425.76,-157.48
36439.09,-185.49
36452.42,-191.01
36465.76,-161.91
36479.09,-142.58
36492.43,-149.39
36505.76,-147.29
36519.09,-133.76
36532.42,-138.49
36545.76,-153.13
36559.09,-151.79
36572.42,-146.0
36585.76,-149.75
36599.09,-139.06
36612.42,-108.61
36625.75,-98.67
36639.09,-121.09
36652.42,-146.2
36665.75,-160.4
36679.09,-161.84
36692.42,-157.84
36705.76,-166.02
36719.08,-171.77
36732.42,-155.81
36745.76,-136.87
36759.08,-122.77
36772.41,-99.7
36785.75,-79.35
36799.08,-75.92
36812.41,-72.82
36825.75,-60.04
36839.08,-50.1
36852.41,-48.46
36865.75,-51.42
36879.08,-52.63
36892.41,-47.92
36905.75,-46.69
36919.08,-53.55
36932.41,-59.15
36945.75,-63.18
36959.08,-66.46
36972.41,-57.5
36985.74,-31.8
36999.07,-5.4
37012.41,-0.02
37025.75,-12.81
37039.07,-22.55
37052.41,-26.24
37065.75,-25.93
37079.08,-14.14
37092.41,7.78
37105.74,37.86
37119.07,70.35
37132.41,85.67
37145.74,77.98
37159.07,57.31
37172.41,35.2
37185.74,29.2
37199.07,43.59
37212.41,59.62
37225.74,66.93
37239.07,67.96
37252.4,57.77
37265.74,33.74
37279.07,13.01
37292.4,8.76
37305.74,13.13
37319.07,26.54
37332.4,54.89
37345.73,80.52
37359.07,89.04
37372.4,82.99
37385.73,57.48
37399.07,25.9
37412.4,22.62
37425.73,37.87
37439.07,38.49
37452.4,32.84
37465.73,39.49
37479.07,55.93
37492.4,71.89
37505.73,71.43
37519.07,59.32
37532.39,63.05
37545.73,78.05
37559.06,79.55
37572.39,74.14
37585.73,74.11
37599.06,71.37
37612.4,60.42
37625.73,49.74
37639.06,46.79
37652.39,46.2
37665.73,61.11
37679.06,60.58
37692.39,-58.82
37705.73,-178.14
37719.06,-48.93
37732.39,149.25
37745.73,58.68
37759.06,-131.9
37772.39,9.22
37785.72,298.04
37799.05,290.77
37812.39,143.55
37825.73,162.16
37839.05,193.64
37852.39,75.58
37865.73,-58.32
37879.06,-92.4
37892.39,-62.93
37905.72,-17.63
37919.05,33.44
37932.39,76.8
37945.72,90.54
37959.05,75.5
37972.39,53.91
37985.72,32.49
37999.05,7.79
38012.39,-11.03
38025.72,-17.84
38039.05,-24.66
38052.38,-38.34
38065.71,-38.58
38079.05,-15.36
38092.39,4.42
38105.72,0.37
38119.05,-17.27
38132.38,-31.05
38145.72,-41.36
38159.05,-58.5
38172.38,-65.73
38185.72,-49.78
38199.05,-39.7
38212.38,-44.68
38225.71,-44.73
38239.05,-45.99
38252.38,-54.44
38265.71,-57.97
38279.05,-53.39
38292.38,-38.98
38305.71,-21.76
38319.04,-16.96
38332.37,-12.0
38345.71,5.23
38359.04,16.26
38372.38,21.34
38385.71,27.24
38399.04,2.27
38412.37,-51.03
38425.71,-72.38
38439.04,-49.91
38452.37,-29.19
38465.71,-26.61
38479.04,-29.28
38492.37,-32.75
38505.71,-28.5
38519.04,-4.42
38532.37,24.89
38545.7,31.1
38559.04,14.95
38572.37,0.34
38585.71,-4.22
38599.04,-3.97
38612.37,4.71
38625.7,24.74
38639.04,36.91
38652.37,16.14
38665.71,-29.15
38679.04,-64.25
38692.37,-69.59
38705.7,-54.48
38719.04,-35.96
38732.37,-11.83
38745.7,21.22
38759.03,44.73
38772.37,48.39
38785.7,42.78
38799.03,36.68
38812.37,34.14
38825.7,37.96
38839.03,46.1
38852.37,50.23
38865.69,40.15
38879.03,19.81
38892.37,1.01
38905.7,-20.65
38919.03,-46.97
38932.37,-53.76
38945.69,-34.5
38959.03,-21.53
38972.36,-28.13
38985.69,-38.59
38999.03,-50.18
39012.36,-56.26
39025.69,-39.59
39039.03,-13.59
39052.36,-1.53
39065.69,2.26
39079.02,7.39
39092.36,7.52
39105.69,-2.75
39119.02,-14.9
39132.35,-15.03
39145.69,-5.75
39159.02,-2.77
39172.35,-3.99
39185.69,9.32
39199.02,35.49
39212.36,56.98
39225.69,69.17
39239.02,68.72
39252.35,50.48
39265.69,26.5
39279.02,10.47
39292.35,5.7
39305.69,15.07
39319.02,31.39
39332.35,42.36
39345.68,50.8
39359.02,56.82
39372.35,50.22
39385.68,36.03
39399.01,27.88
39412.35,23.81
39425.68,16.18
39439.02,11.68
39452.35,23.05
39465.68,42.65
39479.01,39.58
39492.35,6.14
39505.68,-19.91
39519.01,-22.18
39532.35,-29.87
39545.68,-43.11
39559.01,-35.79
39572.35,-20.16
39585.68,-16.25
39599.01,-14.56
39612.34,-10.53
39625.68,-1.15
39639.01,19.7
39652.34,32.54
39665.67,12.62
39679.01,-42.76
39692.34,-109.27
39705.67,-139.32
39719.01,-96.46
39732.34,-23.73
39745.68,-3.52
39759.01,-4.8
39772.34,22.77
39785.67,3.18
39799.01,-89.81
39812.34,-150.3
39825.67,-105.54
39839.01,4.09
39852.34,82.29
39865.67,90.26
39879.0,85.76
39892.34,100.16
39905.67,89.57
39919.01,43.15
39932.34,-6.33
39945.67,-54.85
39959.0,-100.34
39972.33,-120.49
39985.67,-128.89
39999.0,-161.13
40012.34,-199.98
40025.67,-209.56
40039.0,-199.11
40052.33,-188.26
40065.67,-184.44
40079.0,-194.95
40092.33,-203.07
40105.67,-182.82
40119.0,-149.92
40132.33,-133.87
40145.66,-123.86
40159.0,-97.15
40172.33,-62.22
40185.66,-37.82
40199.0,-28.29
40212.33,-25.52
40225.67,-14.15
40239.0,13.34
40252.33,38.4
40265.67,40.63
40279.0,45.72
40292.33,96.57
40305.66,169.75
40319.0,203.33
40332.33,193.5
40345.66,189.89
40359.0,224.2
40372.33,280.59
40385.66,319.2
40399.0,317.21
40412.32,283.64
40425.66,238.4
40438.99,188.48
40452.32,141.82
40465.66,113.67
40478.99,95.54
40492.33,61.1
40505.66,21.7
40518.99,17.2
40532.33,34.64
40545.66,21.04
40558.99,-26.33
40572.32,-67.05
40585.66,-84.22
40598.99,-85.11
40612.32,-58.97
40625.66,12.11
40638.99,103.73
40652.32,165.79
40665.65,182.19
40678.98,162.15
40692.32,105.01
40705.66,23.79
40718.98,-44.23
40732.32,-74.59
40745.65,-65.32
40758.98,-22.53
40772.32,32.49
40785.65,66.06
40798.98,58.34
40812.32,8.33
40825.65,-63.92
40838.98,-119.0
40852.32,-140.94
40865.65,-144.99
40878.98,-141.15
40892.31,-132.58
40905.65,-117.02
40918.98,-72.83
40932.31,11.1
40945.64,95.53
40958.98,121.38
40972.31,69.27
40985.65,-18.11
40998.98,-60.17
41012.32,0.33
41025.65,123.43
41038.98,193.25
41052.31,227.63
41065.65,366.39
41078.98,533.6
41092.31,535.09
41105.64,418.12
41118.98,322.86
41132.31,257.76
41145.64,216.22
41158.97,204.83
41172.31,176.4
41185.64,105.29
41198.98,15.55
41212.3,-69.66
41225.64,-132.38
41238.97,-171.0
41252.31,-198.68
41265.64,-209.85
41278.98,-200.72
41292.31,-204.91
41305.64,-246.02
41318.97,-296.58
41332.31,-332.83
41345.64,-358.38
41358.97,-373.97
41372.3,-385.19
41385.64,-390.88
41398.97,-376.94
41412.3,-361.14
41425.63,-364.64
41438.97,-358.23
41452.3,-324.92
41465.63,-291.57
41478.96,-263.43
41492.3,-230.33
41505.64,-207.49
41518.96,-204.09
41532.3,-208.36
41545.63,-213.07
41558.96,-215.04
41572.3,-197.82
41585.63,-157.79
41598.96,-123.62
41612.3,-106.68
41625.63,-89.74
41638.96,-75.85
41652.3,-67.43
41665.63,-39.25
41678.96,10.85
41692.3,55.37
41705.63,89.26
41718.96,113.84
41732.29,88.87
41745.63,-21.3
41758.96,-155.69
41772.29,-197.04
41785.62,-133.85
41798.96,-67.52
41812.3,-45.5
41825.62,-27.36
41838.96,7.73
41852.29,39.86
41865.62,61.02
41878.96,81.3
41892.29,103.57
41905.62,123.16
41918.96,139.19
41932.29,154.07
41945.62,168.16
41958.95,180.55
41972.29,190.95
41985.62,199.55
41998.95,207.06
42012.28,213.64
42025.62,218.99
42038.96,223.01
42052.28,225.95
42065.62,227.96
42078.96,228.89
42092.29,228.97
42105.62,228.15
42118.95,226.64
42132.29,224.59
42145.62,221.6
42158.95,217.55
42172.28,213.2
42185.62,208.54
42198.95,203.02
42212.28,197.06
42225.61,191.06
42238.95,184.48
42252.28,177.2
42265.62,169.66
42278.95,162.36
42292.28,155.0
42305.61,146.79
42318.95,137.87
42332.28,129.34
42345.61,121.3
42358.95,112.94
42372.28,104.31
42385.61,95.73
42398.95,87.39
42412.28,79.27
42425.61,71.2
42438.94,62.84
42452.28,54.25
42465.61,45.89
42478.94,56.81
42492.28,132.72
42505.61,259.57
42518.94,328.03
42532.28,291.94
42545.61,233.32
42558.94,210.76
42572.28,193.48
42585.6,153.2
42598.94,110.79
42612.27,84.71
42625.6,63.26
42638.94,35.97
42652.27,6.5
42665.6,-18.09
42678.94,-33.61
42692.27,-43.9
42705.6,-47.87
42718.94,-24.99
42732.27,2.08
42745.6,-43.01
42758.94,-78.83
42772.27,82.17
42785.6,302.27
42798.94,282.98
42812.26,108.72
42825.6,30.53
42838.94,29.34
42852.26,-14.93
42865.6,-85.15
42878.94,-127.41
42892.26,-154.28
42905.6,-189.79
42918.93,-226.38
42932.26,-253.8
42945.6,-276.72
42958.93,-299.52
42972.26,-320.08
42985.6,-336.61
42998.93,-350.55
43012.26,-362.72
43025.6,-372.63
43038.93,-380.11
43052.26,-385.67
43065.6,-389.34
43078.92,-391.23
43092.26,-391.41
43105.6,-389.94
43118.92,-387.11
43132.26,-382.86
43145.59,-377.3
43158.92,-370.56
43172.26,-362.7
43185.59,-353.84
43198.93,-344.02
43212.26,-333.38
43225.59,-322.03
43238.92,-310.08
43252.26,-297.58
43265.59,-284.47
43278.92,-270.33
43292.25,-255.88
43305.59,-241.47
43318.92,-226.88
43332.25,-211.84
43345.58,-196.63
43358.92,-181.26
43372.26,-166.02
43385.59,-150.84
43398.91,-135.61
43412.25,-120.23
43425.58,-105.08
43438.92,-90.13
43452.25,-75.12
43465.58,-60.17
43478.92,-45.61
43492.25,-31.37
43505.58,-17.34
43518.92,-3.61
43532.25,9.68
43545.58,22.61
43558.92,35.19
43572.25,47.38
43585.58,59.06
43598.91,70.37
43612.25,71.74
43625.58,31.57
43638.91,-65.05
43652.24,-160.56
43665.57,-184.96
43678.91,-157.47
43692.24,-135.39
43705.57,-119.19
43718.91,-79.26
43732.24,-18.74
43745.57,30.28
43758.91,53.98
43772.24,79.76
43785.58,129.52
43798.91,174.83
43812.24,184.92
43825.57,183.29
43838.91,198.23
43852.24,217.26
43865.57,232.15
43878.91,251.74
43892.24,272.64
43905.57,280.94
43918.91,268.91
43932.24,250.67
43945.57,248.42
43958.9,266.59
43972.23,298.19
43985.57,327.06
43998.9,336.45
44012.23,341.91
44025.57,360.89
44038.9,376.72
44052.23,376.75
44065.57,367.78
44078.9,357.8
44092.23,358.13
44105.57,367.0
44118.9,360.66
44132.23,333.59
44145.57,312.81
44158.9,320.61
44172.23,345.88
44185.56,353.44
44198.89,323.02
44212.23,269.08
44225.56,216.77
44238.89,185.38
44252.23,179.5
44265.57,182.08
44278.89,179.55
44292.23,172.41
44305.56,161.16
44318.9,144.47
44332.23,121.42
44345.56,92.52
44358.89,62.08
44372.23,40.07
44385.56,35.53
44398.89,45.52
44412.22,59.36
44425.56,70.02
44438.89,67.92
44452.22,47.48
44465.55,24.76
44478.89,15.73
44492.22,17.42
44505.56,33.33
44518.89,63.05
44532.23,59.66
44545.55,-8.01
44558.89,-42.0
44572.22,40.85
44585.56,94.37
44598.89,-3.27
44612.22,-75.93
44625.55,26.2
44638.89,135.53
44652.22,82.24
44665.55,-25.15
44678.88,-59.24
44692.22,-78.21
44705.55,-130.05
44718.88,-166.15
44732.21,-169.59
44745.55,-163.88
44758.88,-157.78
44772.21,-161.09
44785.55,-179.27
44798.88,-193.36
44812.21,-188.87
44825.55,-189.41
44838.88,-222.66
44852.21,-266.37
44865.55,-279.25
44878.88,-268.71
44892.21,-265.88
44905.55,-270.57
44918.88,-270.46
44932.21,-266.25
44945.54,-258.77
44958.88,-250.63
44972.21,-247.24
44985.55,-241.15
44998.87,-222.53
45012.21,-185.42
45025.54,-140.13
45038.87,-135.7
45052.21,-176.34
45065.55,-183.02
45078.87,-138.91
45092.21,-110.76
45105.54,-108.54
45118.88,-95.86
45132.21,-73.44
45145.54,-53.36
45158.87,-35.61
45172.21,-28.31
45185.54,-40.78
45198.87,-65.71
45212.21,-89.03
45225.54,-114.08
45238.87,-145.44
45252.2,-173.4
45265.53,-207.85
45278.87,-258.29
45292.2,-279.34
45305.53,-237.66
45318.87,-179.39
45332.21,-148.69
45345.53,-128.16
45358.87,-96.88
45372.2,-64.84
45385.54,-40.94
45398.87,-19.82
45412.2,2.4
45425.53,23.23
45438.87,41.35
45452.2,58.05
45465.53,73.73
45478.86,87.95
45492.2,100.63
45505.53,112.05
45518.86,122.35
45532.19,131.46
45545.53,139.43
45558.86,146.32
45572.19,152.24
45585.53,157.2
45598.87,161.21
45612.19,164.42
45625.53,166.79
45638.86,168.4
45652.19,169.28
45665.53,169.52
45678.86,169.1
45692.19,168.07
45705.53,166.5
45718.86,164.44
45732.19,161.87
45745.52,158.97
45758.86,155.84
45772.19,152.25
45785.52,148.08
45798.85,143.76
45812.19,139.24
45825.53,134.14
45838.85,128.74
45852.19,123.3
45865.52,117.75
45878.85,111.97
45892.19,116.35
45905.52,172.45
45918.86,301.05
45932.19,422.22
45945.52,466.03
45958.85,475.63
45972.19,461.28
45985.52,368.57
45998.85,234.8
46012.18,150.28
46025.52,125.26
46038.85,121.21
46052.19,107.56
46065.51,78.53
46078.85,69.19
46092.18,41.16
46105.52,-92.71
46118.85,-140.01
46132.19,129.95
46145.51,427.55
46158.85,409.17
46172.18,243.65
46185.51,133.77
46198.85,-48.75
46212.18,-367.7
46225.51,-613.66
46238.85,-654.6
46252.18,-604.2
46265.51,-564.57
46278.84,-510.56
46292.18,-437.22
46305.51,-392.07
46318.85,-379.26
46332.17,-366.65
46345.51,-339.98
46358.84,-303.3
46372.17,-265.41
46385.51,-227.73
46398.84,-193.24
46412.17,-175.2
46425.51,-173.67
46438.84,-172.55
46452.17,-163.7
46465.51,-149.2
46478.84,-131.05
46492.17,-112.78
46505.51,-100.52
46518.84,-90.91
46532.17,-69.46
46545.51,-35.48
46558.84,-11.6
46572.17,-14.77
46585.51,-37.67
46598.83,-62.08
46612.17,-78.17
46625.5,-85.21
46638.83,-74.09
46652.17,-47.63
46665.5,-29.62
46678.83,-19.66
46692.17,-4.63
46705.5,2.2
46718.84,-9.71
46732.17,-24.37
46745.5,-21.7
46758.83,-0.55
46772.17,25.86
46785.5,49.98
46798.83,67.14
46812.17,66.82
46825.5,46.8
46838.83,17.36
46852.17,-10.97
46865.5,-28.17
46878.83,-31.24
46892.17,-32.59
46905.5,-41.73
46918.83,-46.16
46932.17,-34.24
46945.5,-14.22
46958.83,5.51
46972.16,19.38
46985.5,23.62
46998.83,30.72
47012.16,47.74
47025.5,53.2
47038.83,31.24
47052.16,9.09
47065.49,19.18
47078.83,46.96
47092.16,61.29
47105.49,57.32
47118.83,41.63
47132.16,12.74
47145.5,-23.18
47158.83,-41.85
47172.16,-31.28
47185.49,-2.27
47198.82,31.27
47212.16,47.77
47225.49,35.92
47238.82,20.46
47252.16,16.65
47265.49,9.49
47278.82,2.22
47292.15,9.8
47305.49,24.26
47318.82,41.5
47332.15,70.31
47345.48,101.13
47358.82,120.39
47372.15,130.22
47385.48,131.35
47398.82,131.63
47412.16,145.72
47425.49,162.41
47438.82,177.54
47452.15,221.04
47465.48,300.11
47478.82,393.17
47492.15,468.68
47505.48,476.46
47518.82,411.95
47532.15,342.26
47545.48,304.95
47558.81,273.64
47572.15,230.7
47585.48,189.29
47598.82,156.61
47612.15,126.06
47625.48,94.66
47638.82,65.62
47652.14,39.86
47665.48,15.76
47678.81,-7.13
47692.14,-28.09
47705.48,-47.13
47718.81,-64.64
47732.14,-80.75
47745.48,-95.28
47758.81,-108.33
47772.14,-120.07
47785.48,-130.55
47798.81,-139.82
47812.14,-147.91
47825.47,-154.91
47838.81,-160.82
47852.14,-165.71
47865.48,-169.69
47878.81,-172.78
47892.14,-175.0
47905.47,-176.42
47918.8,-177.2
47932.14,-177.44
47945.48,-176.97
47958.8,-175.62
47972.14,-173.86
47985.47,-171.64
47998.81,-168.58
48012.14,-165.03
48025.47,-161.19
48038.8,-157.01
48052.14,-152.45
48065.47,-147.47
48078.8,-142.3
48092.14,-136.94
48105.48,-131.32
48118.8,-125.43
48132.13,-119.5
48145.46,-113.35
48158.8,-107.09
48172.13,-100.72
48185.47,-94.31
48198.8,-104.61
48212.14,-171.3
48225.47,-284.67
48238.8,-358.59
48252.13,-359.13
48265.46,-346.68
48278.8,-344.88
48292.13,-312.87
48305.46,-252.24
48318.8,-205.65
48332.13,-179.1
48345.46,-154.99
48358.79,-127.72
48372.13,-100.47
48385.46,-76.79
48398.79,-46.17
48412.12,-0.59
48425.46,46.37
48438.8,84.72
48452.13,117.92
48465.46,143.34
48478.79,148.77
48492.13,135.86
48505.46,128.77
48518.79,137.16
48532.12,145.57
48545.46,152.39
48558.79,171.52
48572.12,198.08
48585.46,211.37
48598.79,210.46
48612.12,209.7
48625.46,208.17
48638.79,209.64
48652.12,234.83
48665.46,283.48
48678.78,323.4
48692.12,329.53
48705.46,309.58
48718.78,287.73
48732.12,272.27
48745.45,253.54
48758.79,235.2
48772.12,227.38
48785.45,221.14
48798.79,210.3
48812.12,200.41
48825.45,189.32
48838.78,172.84
48852.12,158.0
48865.45,152.38
48878.78,154.41
48892.12,160.52
48905.45,159.66
48918.78,134.02
48932.11,96.68
48945.44,80.27
48958.78,84.59
48972.12,92.83
48985.45,95.29
48998.78,81.82
49012.11,59.36
49025.44,50.19
49038.78,55.04
49052.11,58.03
49065.45,56.46
49078.78,55.77
49092.11,55.4
49105.44,49.99
49118.78,36.24
49132.11,20.71
49145.44,11.73
49158.77,7.41
49172.11,-1.16
49185.44,-16.78
49198.77,-29.29
49212.1,-28.38
49225.44,-29.78
49238.78,-49.75
49252.1,-64.35
49265.44,-53.12
49278.77,-40.42
49292.11,-43.61
49305.44,-46.46
49318.77,-46.02
49332.11,-61.01
49345.44,-93.03
49358.77,-114.12
49372.1,-106.68
49385.44,-90.91
49398.77,-89.68
49412.1,-88.8
49425.44,-67.54
49438.77,-37.1
49452.1,-12.77
49465.43,9.16
49478.76,1.08
49492.1,-70.92
49505.43,-132.43
49518.77,-108.07
49532.1,-86.34
49545.43,-129.24
49558.77,-140.8
49572.1,-111.28
49585.43,-140.75
49598.76,-194.92
49612.1,-177.77
49625.43,-125.38
49638.76,-122.74
49652.1,-161.88
49665.43,-175.44
49678.76,-144.96
49692.1,-107.54
49705.43,-83.46
49718.76,-73.35
49732.09,-83.04
49745.43,-94.16
49758.76,-82.31
49772.1,-64.59
49785.42,-65.04
49798.76,-79.56
49812.09,-83.84
49825.43,-57.8
49838.76,-30.81
49852.09,-58.65
49865.43,-130.36
49878.76,-168.23
49892.09,-133.2
49905.42,-65.95
49918.76,-22.1
49932.09,-14.61
49945.42,-20.19
49958.75,-19.13
49972.09,-14.96
49985.42,-17.81
49998.75,-35.43
50012.09,-70.81
50025.42,-102.36
50038.76,-99.7
50052.09,-68.95
50065.41,-37.72
50078.76,-12.75
50092.08,4.89
50105.42,8.38
50118.75,5.5
50132.08,8.58
50145.41,18.79
50158.75,31.5
50172.08,44.83
50185.41,57.96
50198.75,66.54
50212.08,75.11
50225.41,92.57
50238.75,107.19
50252.08,105.95
50265.41,102.01
50278.75,105.54
50292.08,105.19
50305.41,96.44
50318.74,88.95
50332.07,87.47
50345.41,89.6
50358.75,88.73
50372.07,79.37
50385.41,69.19
50398.75,66.17
50412.07,62.23
50425.41,50.01
50438.74,33.5
50452.08,16.14
50465.41,5.3
50478.74,9.21
50492.07,18.73
50505.41,23.02
50518.74,24.65
50532.07,23.19
50545.4,16.56
50558.74,22.21
50572.07,81.7
50585.41,203.75
50598.74,283.99
50612.07,236.82
50625.41,148.27
50638.74,84.22
50652.07,2.59
50665.4,-66.36
50678.73,-83.5
50692.07,-98.77
50705.4,-123.6
50718.73,-124.63
50732.07,-116.67
50745.4,-115.27
50758.73,-95.0
50772.07,-70.41
50785.4,-89.97
50798.73,-122.84
50812.06,-108.56
50825.4,-73.89
50838.73,-72.82
50852.07,-94.43
50865.39,-99.34
50878.73,-78.58
50892.06,-47.39
50905.39,-20.28
50918.73,-2.91
50932.06,9.4
50945.4,20.72
50958.73,26.88
50972.06,23.77
50985.39,7.37
50998.73,-27.19
51012.06,-66.46
51025.39,-73.25
51038.73,-37.58
51052.06,3.06
51065.39,21.51
51078.73,24.98
51092.06,23.99
51105.39,18.93
51118.73,7.61
51132.06,1.38
51145.39,11.33
51158.72,24.53
51172.05,31.65
51185.39,38.74
51198.72,45.74
51212.06,55.29
51225.39,69.89
51238.72,74.23
51252.06,61.15
51265.39,49.27
51278.72,50.76
51292.05,51.68
51305.39,34.67
51318.72,20.75
51332.05,71.06
51345.38,143.39
51358.72,83.97
51372.05,-33.71
51385.38,56.41
51398.72,294.97
51412.05,315.83
51425.38,59.99
51438.71,-95.38
51452.05,-9.14
51465.39,7.54
51478.71,-142.12
51492.05,-203.97
51505.38,-124.2
51518.72,-75.28
51532.05,-97.04
51545.38,-104.78
51558.71,-66.15
51572.05,-17.23
51585.38,3.42
51598.71,-6.76
51612.04,-25.56
51625.38,-31.3
51638.71,-19.18
51652.04,-2.05
51665.38,-18.67
51678.71,-108.52
51692.04,-157.72
51705.38,-9.62
51718.71,207.41
51732.04,282.59
51745.38,219.25
51758.71,70.24
51772.04,-113.34
51785.37,-192.66
51798.71,-113.28
51812.04,-23.94
51825.37,-35.71
51838.71,-68.65
51852.04,-61.39
51865.37,-59.85
51878.7,-73.62
51892.04,-61.56
51905.37,-23.45
51918.7,7.25
51932.03,15.65
51945.37,7.08
51958.7,-15.21
51972.04,-61.03
51985.37,-114.26
51998.7,-130.43
52012.04,-122.81
52025.37,-124.09
52038.7,-77.49
52052.03,36.6
52065.37,82.53
52078.7,6.16
52092.03,-52.63
52105.37,-19.37
52118.7,27.59
52132.03,24.16
52145.36,-13.33
52158.7,-64.12
52172.03,-125.15
52185.36,-172.71
52198.7,-193.88
52212.03,-201.68
52225.36,-192.49
52238.69,-157.29
52252.03,-115.12
52265.37,-85.67
52278.7,-62.47
52292.03,-36.19
52305.36,-10.46
52318.69,10.71
52332.03,29.68
52345.36,48.5
52358.69,65.95
52372.03,80.96
52385.36,93.88
52398.69,105.83
52412.02,116.86
52425.36,126.39
52438.69,134.51
52452.03,141.46
52465.35,147.45
52478.69,152.27
52492.02,156.14
52505.35,159.03
52518.69,161.03
52532.02,162.19
52545.35,162.58
52558.69,162.2
52572.02,161.26
52585.36,159.88
52598.69,157.8
52612.02,154.93
52625.35,151.64
52638.69,147.64
52652.02,142.97
52665.35,138.4
52678.68,133.88
52692.02,128.74
52705.35,123.23
52718.69,117.61
52732.01,111.47
52745.35,104.84
52758.69,98.39
52772.02,92.34
52785.35,86.07
52798.69,81.5
52812.01,97.14
52825.35,157.29
52838.68,233.8
52852.02,266.09
52865.35,261.65
52878.68,276.7
52892.01,316.09
52905.35,335.98
52918.68,334.64
52932.01,353.06
52945.34,363.55
52958.68,299.97
52972.01,182.64
52985.34,74.11
52998.67,5.2
53012.01,-18.69
53025.34,-38.01
53038.68,-98.02
53052.01,-167.88
53065.34,-203.48
53078.67,-224.0
53092.01,-255.05
53105.34,-284.47
53118.67,-300.81
53132.01,-334.59
53145.34,-382.32
53158.67,-318.09
53172.01,-122.01
53185.34,1.63
53198.67,-18.95
53212.0,-66.99
53225.34,-137.56
53238.67,-274.94
53252.01,-393.63
53265.33,-405.43
53278.67,-343.79
53292.0,-272.48
53305.33,-205.75
53318.67,-148.73
53332.0,-126.56
53345.33,-156.34
53358.67,-212.47
53372.0,-212.73
53385.34,-126.22
53398.67,-97.2
53412.0,-220.75
53425.33,-284.14
53438.67,-130.74
53452.0,-27.49
53465.33,-175.94
53478.67,-326.77
53492.0,-290.31
53505.33,-216.45
53518.66,-212.75
53532.0,-212.77
53545.33,-176.43
53558.67,-135.21
53572.0,-111.45
53585.33,-91.65
53598.66,-55.41
53612.0,-17.34
53625.33,-39.84
53638.66,-138.39
53652.0,-238.09
53665.33,-303.15
53678.66,-304.34
53692.0,-159.59
53705.33,59.36
53718.66,164.48
53731.99,144.82
53745.32,113.64
53758.66,85.67
53772.0,13.54
53785.33,-87.39
53798.66,-155.14
53811.99,-142.35
53825.32,-57.53
53838.66,23.19
53851.99,50.58
53865.32,60.39
53878.66,68.3
53891.99,43.95
53905.32,9.82
53918.66,3.46
53931.99,-9.45
53945.32,-23.5
53958.66,61.32
53971.99,242.86
53985.32,343.29
53998.65,251.99
54011.98,97.15
54025.32,16.52
54038.65,-41.99
54051.98,-125.71
54065.32,-147.72
54078.65,-55.73
54091.98,69.35
54105.32,137.59
54118.65,156.6
54131.98,180.38
54145.32,209.67
54158.65,156.48
54171.98,11.62
54185.32,22.16
54198.65,298.84
54211.98,474.65
54225.32,357.43
54238.65,264.55
54251.98,291.53
54265.31,216.72
54278.64,84.28
54291.98,58.3
54305.31,78.93
54318.64,67.52
54331.98,72.86
54345.32,107.19
54358.64,118.7
54371.98,118.27
54385.31,139.0
54398.64,146.8
54411.98,123.14
54425.31,89.6
54438.64,48.42
54451.98,27.3
54465.31,62.59
54478.64,146.61
54491.97,226.59
54505.31,209.21
54518.64,110.54
54531.98,86.45
54545.3,150.21
54558.64,143.92
54571.98,51.84
54585.31,-3.6
54598.64,-8.69
54611.98,-16.61
54625.3,-19.64
54638.64,-6.41
54651.97,-4.2
54665.3,-28.25
54678.64,-58.03
54691.97,-48.18
54705.3,23.8
54718.64,63.02
54731.97,-38.39
54745.3,-129.12
54758.63,-11.83
54771.97,139.05
54785.3,82.2
54798.64,-72.09
54811.96,-121.86
54825.3,-91.07
54838.64,-89.98
54851.97,-108.64
54865.3,-86.91
54878.64,-42.54
54891.97,-27.05
54905.3,-55.14
54918.63,-106.65
54931.96,-99.39
54945.3,-7.81
54958.63,-24.31
54971.96,-200.19
54985.3,-223.46
54998.63,-10.18
55011.96,99.76
55025.3,-36.84
55038.63,-180.51
55051.96,-178.89
55065.3,-145.01
55078.62,-147.85
55091.96,-120.37
55105.29,-59.82
55118.62,-37.82
55131.96,-64.53
55145.3,-90.96
55158.63,-97.58
55171.96,-101.36
55185.29,-106.03
55198.62,-88.53
55211.96,-55.01
55225.29,-58.6
55238.62,-98.23
55251.96,-75.95
55265.29,29.6
55278.62,64.58
55291.95,-32.38
55305.29,-92.68
55318.62,-42.94
55331.96,-12.5
55345.28,-42.28
55358.62,-47.73
55371.96,-17.58
55385.28,-0.7
55398.62,-8.12
55411.96,-21.02
55425.29,-1.58
55438.62,38.77
55451.95,11.03
55465.28,-64.75
55478.62,-43.85
55491.95,61.65
55505.28,96.71
55518.62,73.34
55531.95,113.31
55545.28,150.41
55558.62,74.74
55571.95,-16.64
55585.28,-13.51
55598.62,30.68
55611.95,35.2
55625.28,8.09
55638.62,-1.04
55651.94,8.57
55665.28,-2.13
55678.61,-27.11
55691.95,-21.17
55705.28,30.29
55718.61,88.37
55731.94,104.05
55745.28,102.47
55758.61,114.91
55771.94,76.96
55785.28,-22.05
55798.61,-77.05
55811.94,-58.45
55825.27,-29.04
55838.61,-6.76
55851.94,23.97
55865.27,37.29
55878.6,9.03
55891.94,-9.93
55905.27,-9.43
55918.61,-71.29
55931.94,-158.51
55945.27,-151.34
55958.61,-24.88
55971.94,136.69
55985.27,153.81
55998.6,14.33
56011.94,-53.28
56025.27,18.84
56038.6,78.5
56051.94,45.76
56065.27,-14.06
56078.6,-15.18
56091.93,36.89
56105.27,72.56
56118.6,65.9
56131.93,51.1
56145.26,42.85
56158.6,10.36
56171.93,-31.11
56185.26,-22.3
56198.6,20.23
56211.93,30.53
56225.26,-37.03
56238.6,-184.18
56251.93,-308.75
56265.26,-293.44
56278.6,-163.34
56291.93,-27.61
56305.26,60.56
56318.6,108.79
56331.93,122.67
56345.26,106.6
56358.59,80.68
56371.93,58.7
56385.26,45.52
56398.6,61.0
56411.93,123.1
56425.26,185.56
56438.59,196.19
56451.92,224.93
56465.26,314.21
56478.6,310.06
56491.92,172.14
56505.26,89.87
56518.59,59.31
56531.92,-28.95
56545.26,-44.38
56558.59,53.39
56571.92,68.81
56585.26,-12.59
56598.59,-30.18
56611.92,11.93
56625.25,3.92
56638.59,-52.76
56651.92,-96.65
56665.25,-129.61
56678.59,-174.85
56691.92,-185.86
56705.25,-110.74
56718.59,-22.69
56731.91,-0.5
56745.25,42.67
56758.59,147.42
56771.91,172.14
56785.25,77.84
56798.59,-21.14
56811.91,-84.22
56825.25,-110.67
56838.58,-63.75
56851.91,26.92
56865.25,81.22
56878.58,91.55
56891.91,87.32
56905.25,59.63
56918.58,5.37
56931.91,-55.76
56945.24,-108.08
56958.58,-146.4
56971.91,-141.11
56985.24,-65.3
56998.58,5.89
57011.91,2.94
57025.25,-26.8
57038.57,-49.78
57051.91,-72.16
57065.24,-61.34
57078.57,-14.85
57091.91,17.33
57105.24,30.88
57118.57,48.51
57131.91,44.86
57145.24,0.6
57158.57,-48.5
57171.91,-79.03
57185.24,-114.74
57198.57,-127.9
57211.91,-23.9
57225.24,112.51
57238.57,74.73
57251.9,-49.28
57265.24,-57.48
57278.57,-27.53
57291.91,-76.9
57305.23,-137.44
57318.57,-146.55
57331.91,-127.52
57345.23,-88.44
57358.57,-36.1
57371.9,-16.1
57385.24,-43.66
57398.57,-80.26
57411.9,-130.93
57425.23,-191.41
57438.57,-138.59
57451.9,25.57
57465.23,104.14
57478.57,49.46
57491.9,-24.54
57505.23,-79.93
57518.56,-148.07
57531.9,-202.09
57545.23,-188.27
57558.56,-148.2
57571.9,-147.64
57585.23,-157.36
57598.57,-132.43
57611.89,-101.11
57625.23,-101.06
57638.56,-125.29
57651.89,-161.77
57665.23,-179.04
57678.56,-107.31
57691.89,44.09
57705.23,143.32
57718.56,120.54
57731.89,49.73
57745.22,-8.31
57758.56,-55.22
57771.89,-70.69
57785.22,-29.57
57798.55,57.42
57811.89,153.56
57825.22,218.78
57838.56,248.46
57851.89,266.53
57865.23,275.55
57878.55,258.93
57891.89,215.48
57905.22,156.98
57918.55,105.63
57931.89,94.87
57945.22,120.17
57958.55,124.8
57971.89,81.04
57985.22,8.7
57998.55,-86.66
58011.88,-170.69
58025.22,-171.23
58038.55,-109.3
58051.88,-71.92
58065.21,-66.7
58078.55,-51.24
58091.89,-23.91
58105.21,-4.57
58118.55,7.02
58131.88,20.48
58145.22,35.72
58158.55,48.38
58171.88,58.47
58185.21,68.24
58198.55,77.58
58211.88,85.27
58225.21,91.42
58238.55,96.97
58251.88,102.11
58265.21,106.02
58278.54,108.73
58291.88,110.83
58305.21,112.61
58318.54,113.84
58331.87,114.07
58345.21,113.52
58358.54,112.41
58371.88,110.96
58385.21,109.26
58398.55,107.14
58411.87,104.59
58425.21,101.95
58438.54,99.05
58451.87,95.21
58465.21,90.99
58478.54,87.1
58491.87,83.14
58505.21,78.43
58518.54,73.49
58531.87,68.68
58545.21,63.78
58558.54,58.68
58571.87,53.48
58585.2,48.33
58598.54,43.13
58611.87,37.89
58625.2,32.69
58638.54,27.5
58651.87,22.36
58665.2,17.27
58678.53,12.24
58691.87,7.29
58705.2,2.43
58718.53,-2.32
58731.87,-6.97
58745.2,-11.49
58758.53,-15.79
58771.87,-15.36
58785.2,32.41
58798.53,141.27
58811.86,152.93
58825.2,74.38
58838.53,201.12
58851.87,378.82
58865.19,333.07
58878.53,314.1
58891.87,231.76
58905.19,-49.96
58918.53,-23.16
58931.86,232.34
58945.19,254.49
58958.53,223.71
58971.86,65.49
58985.19,-314.5
58998.53,-342.73
59011.86,-149.68
59025.19,-378.6
59038.53,-647.91
59051.86,-513.81
59065.19,-358.64
59078.52,-348.28
59091.86,-338.88
59105.19,-321.98
59118.52,-187.74
59131.86,-83.45
59145.19,-223.56
59158.53,-171.59
59171.85,195.17
59185.19,366.71
59198.52,350.68
59211.86,379.8
59225.19,339.48
59238.52,223.76
59251.85,161.95
59265.19,138.82
59278.52,92.56
59291.85,36.16
59305.19,-2.98
59318.52,-33.55
59331.85,-67.77
59345.18,-100.93
59358.52,-127.91
59371.85,-151.13
59385.18,-173.17
59398.51,-193.37
59411.85,-210.76
59425.18,-225.7
59438.51,-238.31
59451.85,-248.43
59465.18,-256.76
59478.51,-263.75
59491.85,-268.82
59505.18,-271.91
59518.51,-273.96
59531.85,-274.72
59545.18,-273.69
59558.51,-271.3
59571.85,-268.04
59585.18,-263.68
59598.51,-258.23
59611.84,-251.87
59625.18,-244.65
59638.51,-236.41
59651.84,-227.77
59665.18,-218.98
59678.51,-209.57
59691.85,-199.16
59705.17,-188.04
59718.51,-176.87
59731.85,-165.86
59745.17,-154.39
59758.51,-142.92
59771.84,-131.11
59785.18,-118.99
59798.51,-106.76
59811.84,-94.59
59825.17,-82.47
59838.51,-70.32
59851.84,-58.32
59865.17,-46.41
59878.5,-34.64
59891.84,-23.09
59905.17,-11.71
59918.5,-0.53
59931.83,10.34
59945.17,20.98
59958.51,31.32
59971.83,41.29
59985.17,51.04
59998.51,60.36
60011.83,69.4
60025.17,78.03
60038.5,86.29
60051.83,94.15
60065.17,101.64
60078.5,108.74
60091.83,115.39
60105.17,121.71
60118.5,127.57
60131.83,133.02
60145.16,138.05
60158.5,142.68
60171.83,146.92
60185.17,150.77
60198.5,154.2
60211.83,157.21
60225.17,159.81
60238.5,162.09
60251.83,163.98
60265.16,165.48
60278.5,166.59
60291.83,167.32
60305.16,167.77
60318.5,167.83
60331.83,167.57
60345.16,167.01
60358.49,166.14
60371.83,164.95
60385.16,163.51
60398.49,161.78
60411.82,159.72
60425.16,157.52
60438.49,154.98
60451.83,152.27
60465.16,149.28
60478.49,146.15
60491.82,142.74
60505.16,139.25
60518.49,135.52
60531.83,131.7
60545.16,127.65
60558.49,123.4
60571.82,118.89
60585.16,114.43
60598.49,110.27
60611.82,105.73
60625.15,100.91
60638.49,96.41
60651.82,92.03
60665.15,87.17
60678.49,82.13
60691.82,77.3
60705.15,72.59
60718.49,67.64
60731.82,62.62
60745.15,57.51
60758.48,52.57
60771.82,48.2
60785.15,43.63
60798.49,38.76
60811.82,33.59
60825.15,28.62
60838.48,24.16
60851.82,20.29
60865.15,16.18
60878.48,11.79
60891.82,7.27
60905.15,3.13
60918.48,-0.96
60931.81,-4.35
60945.14,-7.7
60958.48,-11.43
60971.81,-15.52
60985.14,-19.03
60998.48,-22.45
61011.82,-25.61
61025.15,-28.38
61038.48,-30.95
61051.81,-33.89
61065.15,-36.8
61078.48,-39.5
61091.81,-42.1
61105.14,-44.18
61118.48,-46.25
61131.81,-48.23
61145.14,-50.06
61158.47,-51.63
61171.81,-53.18
61185.14,-54.6
61198.47,-55.62
61211.8,-56.65
61225.14,-58.16
61238.47,-59.4
61251.8,-60.13
61265.14,-60.61
61278.48,-61.27
61291.8,-61.56
61305.14,-161.36
61318.47,-438.38
61331.8,-512.95
61345.14,-100.27
61358.47,234.05
61371.8,-3.73
61385.14,-548.71
61398.47,-933.15
61411.8,-905.41
61425.14,-651.7
61438.47,-526.44
61451.8,-520.04
61465.14,-455.74
61478.46,-348.24
61491.8,-278.31
61505.13,-232.19
61518.47,-173.64
61531.8,-111.58
61545.13,-61.86
61558.46,-18.8
61571.8,24.72
61585.13,65.64
61598.46,101.29
61611.8,133.41
61625.13,163.42
61638.46,190.56
61651.8,214.41
61665.13,235.63
61678.46,254.52
61691.8,270.93
61705.13,284.93
61718.46,296.88
61731.8,306.7
61745.13,314.56
61758.46,320.58
61771.8,324.97
61785.12,327.58
61798.46,328.74
61811.79,328.44
61825.12,326.83
61838.46,323.9
61851.79,319.84
61865.13,314.76
61878.46,308.59
61891.79,301.57
61905.12,293.69
61918.46,285.02
61931.79,275.72
61945.12,265.75
61958.45,255.23
61971.79,244.23
61985.12,232.76
61998.45,220.95
62011.78,208.83
62025.12,196.41
62038.45,183.79
62051.79,171.02
62065.12,158.1
62078.46,145.15
62091.78,132.15
62105.12,119.14
62118.45,106.18
62131.78,93.3
62145.12,80.55
62158.45,67.94
62171.78,55.49
62185.12,43.26
62198.45,31.23
62211.78,19.47
62225.12,7.98
62238.45,-3.21
62251.78,-14.11
62265.12,-24.67
62278.44,-34.88
62291.78,-44.74
62305.11,-54.23
62318.45,-63.35
62331.78,-72.05
62345.11,-80.39
62358.44,-88.32
62371.78,-95.82
62385.11,-102.92
62398.45,-109.6
62411.78,-115.86
62425.11,-121.71
62438.44,-127.14
62451.78,-132.14
62465.11,-136.74
62478.44,-140.91
62491.77,-144.69
62505.11,-148.05
62518.44,-151.01
62531.77,-153.58
62545.1,-155.77
62558.44,-157.56
62571.78,-159.0
62585.1,-160.08
62598.44,-160.8
62611.77,-161.16
62625.1,-161.21
62638.44,-160.91
62651.77,-160.3
62665.11,-159.39
62678.44,-158.19
62691.77,-156.7
62705.1,-154.94
62718.44,-152.91
62731.77,-150.66
62745.1,-148.16
62758.43,-145.44
62771.77,-142.52
62785.1,-139.38
62798.43,-136.08
62811.76,-132.58
62825.1,-128.93
62838.44,-125.12
62851.77,-121.17
62865.1,-117.11
62878.43,-112.91
62891.77,-108.63
62905.1,-104.24
62918.43,-99.8
62931.76,-95.27
62945.1,-90.66
62958.43,-86.04
62971.76,-81.34
62985.1,-76.63
62998.43,-71.92
63011.76,-67.2
63025.09,-62.46
63038.43,-57.73
63051.76,-53.02
63065.1,-48.34
63078.42,-43.69
63091.76,-39.1
63105.09,-34.53
63118.43,-30.04
63131.76,-25.61
63145.09,-21.24
63158.42,-16.95
63171.76,-12.74
63185.09,-8.63
63198.43,-4.6
63211.76,-0.67
63225.09,3.16
63238.42,6.88
63251.76,10.5
63265.09,14.0
63278.42,17.38
63291.76,20.65
63305.09,23.79
63318.42,26.81
63331.75,29.7
63345.08,32.47
63358.42,35.11
63371.76,37.62
63385.08,39.99
63398.41,42.24
63411.75,44.35
63425.09,46.33
63438.41,48.18
63451.75,49.9
63465.09,51.49
63478.41,52.95
63491.75,54.28
63505.08,55.49
63518.42,56.57
63531.75,57.52
63545.08,58.35
63558.41,59.06
63571.75,59.66
63585.08,60.13
63598.41,60.5
63611.75,60.76
63625.08,60.9
63638.41,60.94
63651.75,60.88
63665.07,60.72
63678.41,60.46
63691.74,60.12
63705.08,59.68
63718.41,59.15
63731.74,58.54
63745.07,57.85
63758.41,57.09
63771.74,56.25
63785.07,55.35
63798.41,54.38
63811.74,53.34
63825.07,52.25
63838.41,51.1
63851.74,49.9
63865.07,48.66
63878.41,47.37
63891.74,46.04
63905.07,44.67
63918.4,43.27
63931.73,41.84
63945.07,40.38
63958.41,38.89
63971.73,37.39
63985.07,35.87
63998.4,34.33
64011.73,32.78
64025.07,31.23
64038.4,29.67
64051.73,28.1
64065.07,26.54
64078.4,24.98
64091.73,23.43
64105.07,21.88
64118.4,20.34
64131.73,18.81
64145.07,17.3
64158.4,15.81
64171.73,14.34
64185.06,12.88
64198.4,11.46
64211.73,10.05
64225.06,8.67
64238.39,7.32
